##TITLE=No Description
##DATA TYPE=INFRARED SPECTRUM
##XUNITS=1/CM
##YUNITS=%T
399.264912  	86.919124 
401.193728  	86.056413 
403.122544  	93.302025 
405.051360  	97.326087 
406.980176  	95.737055 
408.908992  	91.102253 
410.837808  	92.530533 
412.766624  	94.418244 
414.695440  	96.812721 
416.624256  	91.763202 
418.553072  	84.033497 
420.481888  	92.115960 
422.410704  	95.464198 
424.339520  	97.014931 
426.268336  	105.463478 
428.197152  	105.203483 
430.125968  	105.758456 
432.054784  	107.754120 
433.983600  	105.134043 
435.912416  	103.379860 
437.841232  	111.115115 
439.770048  	111.042470 
441.698864  	105.966777 
443.627680  	104.026804 
445.556496  	103.387224 
447.485312  	104.400137 
449.414128  	101.607675 
451.342944  	102.280820 
453.271760  	105.125581 
455.200576  	103.485111 
457.129392  	100.372668 
459.058208  	102.225644 
460.987024  	105.255096 
462.915840  	108.824293 
464.844656  	109.032492 
466.773472  	114.772654 
468.702288  	113.528847 
470.631104  	108.007892 
472.559920  	107.286216 
474.488736  	106.773589 
476.417552  	106.901801 
478.346368  	107.034416 
480.275184  	110.349610 
482.204000  	109.386841 
484.132816  	102.917959 
486.061632  	103.553392 
487.990448  	107.915090 
489.919264  	111.746107 
491.848080  	112.071963 
493.776896  	108.896122 
495.705712  	106.946620 
497.634528  	108.776437 
499.563344  	108.469629 
501.492160  	105.369338 
503.420976  	105.333498 
505.349792  	107.961246 
507.278608  	108.265301 
509.207424  	104.311290 
511.136240  	102.483344 
513.065056  	104.449034 
514.993872  	103.965017 
516.922688  	103.171481 
518.851504  	100.751474 
520.780320  	99.249655 
522.709136  	96.780605 
524.637952  	95.046683 
526.566768  	92.566822 
528.495584  	90.483432 
530.424400  	89.738175 
532.353216  	88.301386 
534.282032  	85.916679 
536.210848  	82.984811 
538.139664  	81.429612 
540.068480  	79.401556 
541.997296  	76.990559 
543.926112  	76.008546 
545.854928  	74.965570 
547.783744  	73.907172 
549.712560  	72.731602 
551.641376  	71.938950 
553.570192  	70.642054 
555.499008  	69.800020 
557.427824  	68.840788 
559.356640  	67.940299 
561.285456  	67.828506 
563.214272  	67.521657 
565.143088  	67.197599 
567.071904  	66.679002 
569.000720  	65.512536 
570.929536  	64.931370 
572.858352  	64.084239 
574.787168  	64.096110 
576.715984  	63.472429 
578.644800  	62.319952 
580.573616  	62.174573 
582.502432  	61.618539 
584.431248  	60.855477 
586.360064  	59.905596 
588.288880  	59.015504 
590.217696  	58.126653 
592.146512  	57.380292 
594.075328  	56.591624 
596.004144  	55.856253 
597.932960  	55.101704 
599.861776  	54.917426 
601.790592  	55.140767 
603.719408  	55.347647 
605.648224  	55.143644 
607.577040  	55.410626 
609.505856  	56.170941 
611.434672  	56.773636 
613.363488  	57.220339 
615.292304  	57.548921 
617.221120  	57.801310 
619.149936  	58.095177 
621.078752  	57.673513 
623.007568  	56.636989 
624.936384  	56.048338 
626.865200  	55.973345 
628.794016  	55.687186 
630.722832  	55.445160 
632.651648  	55.153496 
634.580464  	54.896176 
636.509280  	54.793692 
638.438096  	54.484670 
640.366912  	53.999538 
642.295728  	53.676923 
644.224544  	53.469426 
646.153360  	53.177381 
648.082176  	52.894193 
650.010992  	52.674910 
651.939808  	52.495394 
653.868624  	52.319306 
655.797440  	52.212789 
657.726256  	52.119965 
659.655072  	51.950383 
661.583888  	51.924007 
663.512704  	51.921314 
665.441520  	51.584730 
667.370336  	51.228327 
669.299152  	51.902226 
671.227968  	52.066175 
673.156784  	52.168259 
675.085600  	52.363112 
677.014416  	52.627876 
678.943232  	52.814839 
680.872048  	53.054183 
682.800864  	53.230169 
684.729680  	53.451273 
686.658496  	53.651983 
688.587312  	53.808582 
690.516128  	53.942625 
692.444944  	54.058048 
694.373760  	54.111883 
696.302576  	54.079087 
698.231392  	53.918469 
700.160208  	53.811121 
702.089024  	53.701824 
704.017840  	53.665012 
705.946656  	53.727676 
707.875472  	53.864640 
709.804288  	54.038602 
711.733104  	54.345780 
713.661920  	54.817737 
715.590736  	55.375357 
717.519552  	55.882012 
719.448368  	56.431288 
721.377184  	57.073900 
723.306000  	57.719355 
725.234816  	58.251725 
727.163632  	58.680221 
729.092448  	59.053142 
731.021264  	59.387944 
732.950080  	59.667885 
734.878896  	59.929831 
736.807712  	60.122965 
738.736528  	60.314066 
740.665344  	60.471452 
742.594160  	60.566258 
744.522976  	60.601653 
746.451792  	60.614313 
748.380608  	60.508522 
750.309424  	60.353753 
752.238240  	60.124484 
754.167056  	59.900356 
756.095872  	59.668237 
758.024688  	59.439295 
759.953504  	59.304755 
761.882320  	59.338804 
763.811136  	59.552629 
765.739952  	59.915847 
767.668768  	60.451445 
769.597584  	61.197287 
771.526400  	62.088807 
773.455216  	63.050723 
775.384032  	63.964575 
777.312848  	64.781921 
779.241664  	65.441644 
781.170480  	65.924660 
783.099296  	66.314076 
785.028112  	66.659179 
786.956928  	66.959711 
788.885744  	67.264671 
790.814560  	67.561777 
792.743376  	67.883277 
794.672192  	68.189761 
796.601008  	68.489713 
798.529824  	68.817177 
800.458640  	69.252996 
802.387456  	69.633936 
804.316272  	69.923947 
806.245088  	70.159907 
808.173904  	70.384598 
810.102720  	70.589637 
812.031536  	70.748892 
813.960352  	70.910948 
815.889168  	71.099273 
817.817984  	71.220886 
819.746800  	71.324374 
821.675616  	71.450368 
823.604432  	71.570548 
825.533248  	71.598564 
827.462064  	71.500189 
829.390880  	71.383819 
831.319696  	71.205667 
833.248512  	70.870322 
835.177328  	70.490622 
837.106144  	70.122907 
839.034960  	69.794607 
840.963776  	69.467994 
842.892592  	69.203767 
844.821408  	69.046475 
846.750224  	68.946389 
848.679040  	68.876666 
850.607856  	68.881134 
852.536672  	68.830286 
854.465488  	68.707753 
856.394304  	68.519246 
858.323120  	68.361643 
860.251936  	68.300083 
862.180752  	68.525205 
864.109568  	69.242564 
866.038384  	70.447608 
867.967200  	71.928664 
869.896016  	73.455781 
871.824832  	74.832263 
873.753648  	75.994623 
875.682464  	76.894436 
877.611280  	77.597720 
879.540096  	78.125012 
881.468912  	78.444161 
883.397728  	78.562418 
885.326544  	78.558650 
887.255360  	78.337426 
889.184176  	77.957309 
891.112992  	77.545564 
893.041808  	77.124906 
894.970624  	76.735256 
896.899440  	76.355310 
898.828256  	75.931387 
900.757072  	75.525371 
902.685888  	75.147771 
904.614704  	74.681252 
906.543520  	74.091518 
908.472336  	73.507997 
910.401152  	72.925393 
912.329968  	72.339814 
914.258784  	71.675681 
916.187600  	70.930155 
918.116416  	70.158093 
920.045232  	69.412612 
921.974048  	68.740930 
923.902864  	68.285497 
925.831680  	68.051001 
927.760496  	68.009743 
929.689312  	68.136543 
931.618128  	68.477764 
933.546944  	68.915058 
935.475760  	69.379075 
937.404576  	69.902347 
939.333392  	70.554816 
941.262208  	71.340399 
943.191024  	72.278001 
945.119840  	73.254903 
947.048656  	74.092524 
948.977472  	74.658656 
950.906288  	74.948650 
952.835104  	74.908295 
954.763920  	74.585824 
956.692736  	73.953911 
958.621552  	73.098931 
960.550368  	72.111974 
962.479184  	70.918257 
964.408000  	69.467549 
966.336816  	67.855912 
968.265632  	66.058720 
970.194448  	64.088664 
972.123264  	61.890277 
974.052080  	59.443869 
975.980896  	56.651044 
977.909712  	53.483897 
979.838528  	49.864300 
981.767344  	45.837530 
983.696160  	41.534447 
985.624976  	37.224170 
987.553792  	33.196894 
989.482608  	29.709787 
991.411424  	26.911614 
993.340240  	24.856344 
995.269056  	23.454891 
997.197872  	22.604896 
999.126688  	22.200523 
1001.055504  	22.147148 
1002.984320  	22.361930 
1004.913136  	22.800906 
1006.841952  	23.394953 
1008.770768  	24.004134 
1010.699584  	24.611250 
1012.628400  	25.298555 
1014.557216  	26.147467 
1016.486032  	27.213489 
1018.414848  	28.478006 
1020.343664  	29.931755 
1022.272480  	31.555931 
1024.201296  	33.289725 
1026.130112  	35.096986 
1028.058928  	36.885474 
1029.987744  	38.510293 
1031.916560  	39.856249 
1033.845376  	40.820169 
1035.774192  	41.421503 
1037.703008  	41.808331 
1039.631824  	42.154245 
1041.560640  	42.617920 
1043.489456  	43.298516 
1045.418272  	44.246775 
1047.347088  	45.467380 
1049.275904  	46.955007 
1051.204720  	48.812285 
1053.133536  	51.026281 
1055.062352  	53.443442 
1056.991168  	55.912532 
1058.919984  	58.322077 
1060.848800  	60.528189 
1062.777616  	62.351918 
1064.706432  	63.518392 
1066.635248  	63.722435 
1068.564064  	62.600245 
1070.492880  	60.046632 
1072.421696  	56.560491 
1074.350512  	53.377437 
1076.279328  	51.728597 
1078.208144  	51.930297 
1080.136960  	53.480066 
1082.065776  	55.728631 
1083.994592  	58.191696 
1085.923408  	60.588247 
1087.852224  	62.673726 
1089.781040  	64.324280 
1091.709856  	65.431037 
1093.638672  	65.979330 
1095.567488  	66.029282 
1097.496304  	65.724054 
1099.425120  	65.247152 
1101.353936  	64.816410 
1103.282752  	64.580258 
1105.211568  	64.676852 
1107.140384  	65.095085 
1109.069200  	65.714751 
1110.998016  	66.412279 
1112.926832  	67.121407 
1114.855648  	67.769499 
1116.784464  	68.336278 
1118.713280  	68.796268 
1120.642096  	69.188842 
1122.570912  	69.577521 
1124.499728  	70.097300 
1126.428544  	70.819011 
1128.357360  	71.688430 
1130.286176  	72.480479 
1132.214992  	72.976357 
1134.143808  	72.964387 
1136.072624  	72.343280 
1138.001440  	71.134237 
1139.930256  	69.451834 
1141.859072  	67.494418 
1143.787888  	65.542057 
1145.716704  	63.793711 
1147.645520  	62.477669 
1149.574336  	61.763606 
1151.503152  	61.775293 
1153.431968  	62.513643 
1155.360784  	63.924526 
1157.289600  	65.876172 
1159.218416  	68.254439 
1161.147232  	70.911156 
1163.076048  	73.690008 
1165.004864  	76.420906 
1166.933680  	78.966157 
1168.862496  	81.222783 
1170.791312  	83.146992 
1172.720128  	84.712351 
1174.648944  	85.967549 
1176.577760  	86.899999 
1178.506576  	87.559298 
1180.435392  	87.978408 
1182.364208  	88.207022 
1184.293024  	88.252087 
1186.221840  	88.175507 
1188.150656  	88.003682 
1190.079472  	87.754146 
1192.008288  	87.375655 
1193.937104  	86.937853 
1195.865920  	86.466629 
1197.794736  	85.967804 
1199.723552  	85.493084 
1201.652368  	85.139163 
1203.581184  	84.918974 
1205.510000  	84.827609 
1207.438816  	84.880740 
1209.367632  	85.031315 
1211.296448  	85.228979 
1213.225264  	85.474681 
1215.154080  	85.656446 
1217.082896  	85.764913 
1219.011712  	85.784176 
1220.940528  	85.701448 
1222.869344  	85.496201 
1224.798160  	85.215491 
1226.726976  	84.878010 
1228.655792  	84.509346 
1230.584608  	84.129399 
1232.513424  	83.780409 
1234.442240  	83.448366 
1236.371056  	83.160195 
1238.299872  	82.875915 
1240.228688  	82.666039 
1242.157504  	82.534270 
1244.086320  	82.450707 
1246.015136  	82.406820 
1247.943952  	82.432897 
1249.872768  	82.490379 
1251.801584  	82.537940 
1253.730400  	82.567057 
1255.659216  	82.557509 
1257.588032  	82.485132 
1259.516848  	82.439992 
1261.445664  	82.421645 
1263.374480  	82.414608 
1265.303296  	82.387865 
1267.232112  	82.329445 
1269.160928  	82.247468 
1271.089744  	82.142647 
1273.018560  	82.011577 
1274.947376  	81.854969 
1276.876192  	81.675323 
1278.805008  	81.507519 
1280.733824  	81.377816 
1282.662640  	81.301659 
1284.591456  	81.227753 
1286.520272  	81.154486 
1288.449088  	81.065793 
1290.377904  	80.945874 
1292.306720  	80.769469 
1294.235536  	80.588880 
1296.164352  	80.421992 
1298.093168  	80.332620 
1300.021984  	80.331127 
1301.950800  	80.423899 
1303.879616  	80.555213 
1305.808432  	80.675229 
1307.737248  	80.736746 
1309.666064  	80.708992 
1311.594880  	80.565750 
1313.523696  	80.393791 
1315.452512  	80.177803 
1317.381328  	79.853020 
1319.310144  	79.476931 
1321.238960  	79.106041 
1323.167776  	78.665654 
1325.096592  	78.197066 
1327.025408  	77.738174 
1328.954224  	77.307359 
1330.883040  	76.942826 
1332.811856  	76.680054 
1334.740672  	76.390134 
1336.669488  	76.051860 
1338.598304  	75.779807 
1340.527120  	75.818870 
1342.455936  	75.909792 
1344.384752  	75.878836 
1346.313568  	75.795777 
1348.242384  	75.693602 
1350.171200  	75.554532 
1352.100016  	75.323198 
1354.028832  	75.029729 
1355.957648  	74.776454 
1357.886464  	74.511218 
1359.815280  	74.188834 
1361.744096  	73.912987 
1363.672912  	73.928541 
1365.601728  	73.908820 
1367.530544  	73.721298 
1369.459360  	73.578870 
1371.388176  	73.400408 
1373.316992  	73.176925 
1375.245808  	73.199815 
1377.174624  	73.197650 
1379.103440  	73.149146 
1381.032256  	73.140055 
1382.961072  	73.181005 
1384.889888  	73.189595 
1386.818704  	73.376240 
1388.747520  	73.799741 
1390.676336  	74.027306 
1392.605152  	74.031967 
1394.533968  	74.092316 
1396.462784  	74.280711 
1398.391600  	74.540811 
1400.320416  	74.952906 
1402.249232  	75.108187 
1404.178048  	75.224614 
1406.106864  	75.540507 
1408.035680  	75.797179 
1409.964496  	75.998219 
1411.893312  	76.247435 
1413.822128  	76.447262 
1415.750944  	76.436158 
1417.679760  	76.439528 
1419.608576  	77.032783 
1421.537392  	77.443248 
1423.466208  	77.692166 
1425.395024  	78.155975 
1427.323840  	78.416749 
1429.252656  	78.689165 
1431.181472  	79.078233 
1433.110288  	79.307047 
1435.039104  	79.393079 
1436.967920  	79.962159 
1438.896736  	80.493381 
1440.825552  	80.774246 
1442.754368  	81.008733 
1444.683184  	81.121059 
1446.612000  	81.143468 
1448.540816  	81.294122 
1450.469632  	81.332266 
1452.398448  	81.189203 
1454.327264  	80.814981 
1456.256080  	80.512060 
1458.184896  	81.149328 
1460.113712  	81.831909 
1462.042528  	82.214047 
1463.971344  	82.717659 
1465.900160  	83.712916 
1467.828976  	84.508671 
1469.757792  	84.986780 
1471.686608  	85.448371 
1473.615424  	86.378004 
1475.544240  	87.217868 
1477.473056  	88.026320 
1479.401872  	88.547179 
1481.330688  	88.961768 
1483.259504  	89.347541 
1485.188320  	89.460075 
1487.117136  	89.398431 
1489.045952  	89.403524 
1490.974768  	89.976066 
1492.903584  	90.345728 
1494.832400  	90.281941 
1496.761216  	90.206051 
1498.690032  	90.409549 
1500.618848  	90.586817 
1502.547664  	90.558855 
1504.476480  	90.113356 
1506.405296  	89.339108 
1508.334112  	89.605679 
1510.262928  	90.085242 
1512.191744  	90.248835 
1514.120560  	90.071387 
1516.049376  	89.659025 
1517.978192  	89.534563 
1519.907008  	89.223190 
1521.835824  	89.104986 
1523.764640  	89.138916 
1525.693456  	88.984600 
1527.622272  	88.881965 
1529.551088  	88.793289 
1531.479904  	88.313415 
1533.408720  	87.870110 
1535.337536  	87.646579 
1537.266352  	87.098355 
1539.195168  	86.010677 
1541.123984  	85.473601 
1543.052800  	85.232111 
1544.981616  	85.047011 
1546.910432  	84.726296 
1548.839248  	84.041142 
1550.768064  	83.279663 
1552.696880  	82.580706 
1554.625696  	81.616221 
1556.554512  	80.624822 
1558.483328  	79.667592 
1560.412144  	79.663564 
1562.340960  	79.304795 
1564.269776  	78.808510 
1566.198592  	78.244581 
1568.127408  	77.679373 
1570.056224  	77.414323 
1571.985040  	77.217146 
1573.913856  	76.792933 
1575.842672  	76.700582 
1577.771488  	76.927975 
1579.700304  	76.976268 
1581.629120  	77.043150 
1583.557936  	77.192355 
1585.486752  	77.404350 
1587.415568  	77.631611 
1589.344384  	77.921973 
1591.273200  	78.270843 
1593.202016  	78.677253 
1595.130832  	79.156523 
1597.059648  	79.700891 
1598.988464  	80.192934 
1600.917280  	80.687302 
1602.846096  	81.204025 
1604.774912  	81.728063 
1606.703728  	82.180498 
1608.632544  	82.659733 
1610.561360  	83.136439 
1612.490176  	83.464702 
1614.418992  	83.513664 
1616.347808  	83.802651 
1618.276624  	84.256418 
1620.205440  	84.296454 
1622.134256  	84.227087 
1624.063072  	84.406908 
1625.991888  	84.468974 
1627.920704  	84.490851 
1629.849520  	84.539007 
1631.778336  	84.367209 
1633.707152  	83.982368 
1635.635968  	83.812260 
1637.564784  	84.067281 
1639.493600  	84.234591 
1641.422416  	84.283923 
1643.351232  	84.127240 
1645.280048  	83.828636 
1647.208864  	83.973839 
1649.137680  	84.260942 
1651.066496  	84.082564 
1652.995312  	84.322423 
1654.924128  	85.159091 
1656.852944  	85.529593 
1658.781760  	85.795234 
1660.710576  	85.924945 
1662.639392  	86.302865 
1664.568208  	86.793110 
1666.497024  	86.923985 
1668.425840  	86.995603 
1670.354656  	87.539247 
1672.283472  	88.020068 
1674.212288  	88.402642 
1676.141104  	89.008744 
1678.069920  	89.354122 
1679.998736  	89.496166 
1681.927552  	89.530805 
1683.856368  	89.865298 
1685.785184  	90.784852 
1687.714000  	91.148972 
1689.642816  	91.597400 
1691.571632  	92.011169 
1693.500448  	92.110615 
1695.429264  	92.095221 
1697.358080  	92.207002 
1699.286896  	92.417733 
1701.215712  	93.070436 
1703.144528  	93.286415 
1705.073344  	93.439307 
1707.002160  	93.803362 
1708.930976  	94.104143 
1710.859792  	94.214159 
1712.788608  	94.164672 
1714.717424  	93.912733 
1716.646240  	93.896340 
1718.575056  	94.330789 
1720.503872  	94.712876 
1722.432688  	94.820929 
1724.361504  	94.908625 
1726.290320  	94.926457 
1728.219136  	94.782157 
1730.147952  	94.502481 
1732.076768  	94.235440 
1734.005584  	94.116300 
1735.934400  	94.399489 
1737.863216  	94.410764 
1739.792032  	94.385840 
1741.720848  	94.428505 
1743.649664  	94.516363 
1745.578480  	94.626854 
1747.507296  	94.661071 
1749.436112  	94.850159 
1751.364928  	95.417124 
1753.293744  	95.919786 
1755.222560  	96.099202 
1757.151376  	96.234680 
1759.080192  	96.451073 
1761.009008  	96.547191 
1762.937824  	96.819334 
1764.866640  	97.017151 
1766.795456  	97.000357 
1768.724272  	96.923608 
1770.653088  	96.831766 
1772.581904  	96.906172 
1774.510720  	97.240200 
1776.439536  	97.382091 
1778.368352  	97.365347 
1780.297168  	97.340720 
1782.225984  	97.474398 
1784.154800  	97.490784 
1786.083616  	97.598161 
1788.012432  	97.635451 
1789.941248  	97.440164 
1791.870064  	97.305160 
1793.798880  	97.497669 
1795.727696  	97.614136 
1797.656512  	97.659134 
1799.585328  	97.590417 
1801.514144  	97.628441 
1803.442960  	97.811683 
1805.371776  	97.919963 
1807.300592  	97.881344 
1809.229408  	97.831800 
1811.158224  	97.828699 
1813.087040  	97.974832 
1815.015856  	98.067487 
1816.944672  	98.087793 
1818.873488  	98.090123 
1820.802304  	98.078993 
1822.731120  	97.949707 
1824.659936  	97.860954 
1826.588752  	97.887979 
1828.517568  	97.857518 
1830.446384  	97.907896 
1832.375200  	98.116950 
1834.304016  	98.189906 
1836.232832  	98.194164 
1838.161648  	98.210369 
1840.090464  	98.200288 
1842.019280  	98.026880 
1843.948096  	97.926717 
1845.876912  	97.967598 
1847.805728  	98.090797 
1849.734544  	98.214898 
1851.663360  	98.289141 
1853.592176  	98.290117 
1855.520992  	98.335690 
1857.449808  	98.326524 
1859.378624  	98.307824 
1861.307440  	98.260006 
1863.236256  	98.231950 
1865.165072  	98.097889 
1867.093888  	97.945266 
1869.022704  	97.953645 
1870.951520  	98.184002 
1872.880336  	98.298621 
1874.809152  	98.347435 
1876.737968  	98.346735 
1878.666784  	98.372470 
1880.595600  	98.361563 
1882.524416  	98.327894 
1884.453232  	98.292523 
1886.382048  	98.295524 
1888.310864  	98.193898 
1890.239680  	98.215684 
1892.168496  	98.289489 
1894.097312  	98.292866 
1896.026128  	98.324342 
1897.954944  	98.393281 
1899.883760  	98.381105 
1901.812576  	98.395098 
1903.741392  	98.379208 
1905.670208  	98.387633 
1907.599024  	98.297965 
1909.527840  	98.277861 
1911.456656  	98.369472 
1913.385472  	98.435710 
1915.314288  	98.373275 
1917.243104  	98.353203 
1919.171920  	98.307384 
1921.100736  	98.281260 
1923.029552  	98.284070 
1924.958368  	98.470424 
1926.887184  	98.505740 
1928.816000  	98.577101 
1930.744816  	98.609343 
1932.673632  	98.622698 
1934.602448  	98.619792 
1936.531264  	98.615407 
1938.460080  	98.581128 
1940.388896  	98.558559 
1942.317712  	98.479497 
1944.246528  	98.576127 
1946.175344  	98.622714 
1948.104160  	98.725275 
1950.032976  	98.761577 
1951.961792  	98.768817 
1953.890608  	98.770866 
1955.819424  	98.889782 
1957.748240  	98.981339 
1959.677056  	98.977564 
1961.605872  	98.957715 
1963.534688  	99.052229 
1965.463504  	99.121365 
1967.392320  	99.184066 
1969.321136  	99.203571 
1971.249952  	99.257099 
1973.178768  	99.237048 
1975.107584  	99.283385 
1977.036400  	99.273339 
1978.965216  	99.245085 
1980.894032  	99.169869 
1982.822848  	99.251931 
1984.751664  	99.220108 
1986.680480  	99.091250 
1988.609296  	99.027498 
1990.538112  	99.076888 
1992.466928  	99.087590 
1994.395744  	99.190567 
1996.324560  	99.152665 
1998.253376  	99.127225 
2000.182192  	99.126519 
2002.111008  	99.241788 
2004.039824  	99.332802 
2005.968640  	99.370744 
2007.897456  	99.229230 
2009.826272  	99.221756 
2011.755088  	99.225030 
2013.683904  	99.239237 
2015.612720  	99.194879 
2017.541536  	99.210302 
2019.470352  	99.182948 
2021.399168  	99.211116 
2023.327984  	99.326188 
2025.256800  	99.378576 
2027.185616  	99.221709 
2029.114432  	99.138178 
2031.043248  	99.105858 
2032.972064  	99.063460 
2034.900880  	98.908631 
2036.829696  	98.861159 
2038.758512  	98.884177 
2040.687328  	98.906118 
2042.616144  	98.834391 
2044.544960  	98.728799 
2046.473776  	98.647626 
2048.402592  	98.509712 
2050.331408  	98.387696 
2052.260224  	98.437554 
2054.189040  	98.420437 
2056.117856  	98.381183 
2058.046672  	98.332486 
2059.975488  	98.291088 
2061.904304  	98.201620 
2063.833120  	98.184991 
2065.761936  	98.209075 
2067.690752  	98.230810 
2069.619568  	98.216846 
2071.548384  	98.216813 
2073.477200  	98.148375 
2075.406016  	98.137287 
2077.334832  	98.120600 
2079.263648  	98.064295 
2081.192464  	97.995209 
2083.121280  	97.989850 
2085.050096  	98.014403 
2086.978912  	98.039575 
2088.907728  	98.057780 
2090.836544  	98.050684 
2092.765360  	98.068903 
2094.694176  	98.073436 
2096.622992  	98.014266 
2098.551808  	98.000511 
2100.480624  	97.952745 
2102.409440  	97.921777 
2104.338256  	97.951740 
2106.267072  	97.950284 
2108.195888  	97.923427 
2110.124704  	97.899148 
2112.053520  	97.920106 
2113.982336  	97.972551 
2115.911152  	97.889441 
2117.839968  	97.827322 
2119.768784  	97.808566 
2121.697600  	97.848559 
2123.626416  	97.853941 
2125.555232  	97.855082 
2127.484048  	97.941925 
2129.412864  	97.995081 
2131.341680  	98.024093 
2133.270496  	98.133034 
2135.199312  	98.112699 
2137.128128  	98.065060 
2139.056944  	98.087131 
2140.985760  	98.094260 
2142.914576  	98.043979 
2144.843392  	98.173060 
2146.772208  	98.354529 
2148.701024  	98.430174 
2150.629840  	98.427910 
2152.558656  	98.586823 
2154.487472  	98.711521 
2156.416288  	98.815773 
2158.345104  	98.791110 
2160.273920  	98.675004 
2162.202736  	98.525065 
2164.131552  	98.389452 
2166.060368  	98.259157 
2167.989184  	98.238486 
2169.918000  	98.205100 
2171.846816  	98.310108 
2173.775632  	98.375640 
2175.704448  	98.313825 
2177.633264  	98.217955 
2179.562080  	98.333154 
2181.490896  	98.358473 
2183.419712  	98.347091 
2185.348528  	98.230676 
2187.277344  	98.215052 
2189.206160  	98.228792 
2191.134976  	98.257169 
2193.063792  	98.232050 
2194.992608  	98.237890 
2196.921424  	98.257160 
2198.850240  	98.322284 
2200.779056  	98.283216 
2202.707872  	98.216890 
2204.636688  	98.127492 
2206.565504  	98.139448 
2208.494320  	98.151036 
2210.423136  	98.169732 
2212.351952  	98.211287 
2214.280768  	98.245209 
2216.209584  	98.183236 
2218.138400  	98.145937 
2220.067216  	98.123568 
2221.996032  	98.111757 
2223.924848  	98.141303 
2225.853664  	98.171382 
2227.782480  	98.190390 
2229.711296  	98.201290 
2231.640112  	98.174175 
2233.568928  	98.174495 
2235.497744  	98.154376 
2237.426560  	98.138783 
2239.355376  	98.144502 
2241.284192  	98.228226 
2243.213008  	98.237610 
2245.141824  	98.195910 
2247.070640  	98.150374 
2248.999456  	98.161709 
2250.928272  	98.108376 
2252.857088  	98.055953 
2254.785904  	98.074334 
2256.714720  	98.151511 
2258.643536  	98.122008 
2260.572352  	98.096762 
2262.501168  	98.080044 
2264.429984  	98.077024 
2266.358800  	98.063978 
2268.287616  	98.083482 
2270.216432  	98.095474 
2272.145248  	98.144324 
2274.074064  	98.119821 
2276.002880  	98.077310 
2277.931696  	98.060504 
2279.860512  	98.044532 
2281.789328  	98.025570 
2283.718144  	98.046969 
2285.646960  	98.002585 
2287.575776  	97.943929 
2289.504592  	97.905423 
2291.433408  	97.911438 
2293.362224  	97.927754 
2295.291040  	97.891585 
2297.219856  	97.826005 
2299.148672  	97.811495 
2301.077488  	97.755710 
2303.006304  	97.702054 
2304.935120  	97.689963 
2306.863936  	97.650679 
2308.792752  	97.629701 
2310.721568  	97.677855 
2312.650384  	97.690646 
2314.579200  	97.685921 
2316.508016  	97.608008 
2318.436832  	97.570673 
2320.365648  	97.527469 
2322.294464  	97.424907 
2324.223280  	97.481606 
2326.152096  	97.657806 
2328.080912  	97.708429 
2330.009728  	97.705022 
2331.938544  	97.761154 
2333.867360  	97.781485 
2335.796176  	97.672365 
2337.724992  	97.669507 
2339.653808  	97.697226 
2341.582624  	97.767137 
2343.511440  	97.790563 
2345.440256  	97.616160 
2347.369072  	97.389716 
2349.297888  	97.300415 
2351.226704  	97.362913 
2353.155520  	97.582397 
2355.084336  	97.711847 
2357.013152  	97.470660 
2358.941968  	97.257625 
2360.870784  	97.461887 
2362.799600  	97.702472 
2364.728416  	97.739859 
2366.657232  	97.477746 
2368.586048  	97.524753 
2370.514864  	97.491061 
2372.443680  	97.425341 
2374.372496  	97.507252 
2376.301312  	97.603037 
2378.230128  	97.549703 
2380.158944  	97.571007 
2382.087760  	97.666465 
2384.016576  	97.765829 
2385.945392  	97.819208 
2387.874208  	97.840875 
2389.803024  	97.834452 
2391.731840  	97.856791 
2393.660656  	97.861169 
2395.589472  	97.865759 
2397.518288  	97.866197 
2399.447104  	97.864631 
2401.375920  	97.853627 
2403.304736  	97.865730 
2405.233552  	97.822504 
2407.162368  	97.809667 
2409.091184  	97.843115 
2411.020000  	97.822283 
2412.948816  	97.769814 
2414.877632  	97.762564 
2416.806448  	97.765650 
2418.735264  	97.740451 
2420.664080  	97.693733 
2422.592896  	97.679245 
2424.521712  	97.652052 
2426.450528  	97.666123 
2428.379344  	97.668993 
2430.308160  	97.635785 
2432.236976  	97.601179 
2434.165792  	97.574228 
2436.094608  	97.514786 
2438.023424  	97.504458 
2439.952240  	97.517735 
2441.881056  	97.542467 
2443.809872  	97.508481 
2445.738688  	97.486406 
2447.667504  	97.487057 
2449.596320  	97.478303 
2451.525136  	97.405039 
2453.453952  	97.354536 
2455.382768  	97.361446 
2457.311584  	97.364929 
2459.240400  	97.274098 
2461.169216  	97.250783 
2463.098032  	97.263700 
2465.026848  	97.265202 
2466.955664  	97.263786 
2468.884480  	97.247958 
2470.813296  	97.216911 
2472.742112  	97.186744 
2474.670928  	97.156795 
2476.599744  	97.153393 
2478.528560  	97.114011 
2480.457376  	97.096666 
2482.386192  	97.067036 
2484.315008  	97.053641 
2486.243824  	97.066156 
2488.172640  	97.027248 
2490.101456  	96.999970 
2492.030272  	97.008240 
2493.959088  	96.967331 
2495.887904  	96.928853 
2497.816720  	96.884834 
2499.745536  	96.886674 
2501.674352  	96.887685 
2503.603168  	96.868426 
2505.531984  	96.824589 
2507.460800  	96.836652 
2509.389616  	96.830031 
2511.318432  	96.813224 
2513.247248  	96.811176 
2515.176064  	96.831914 
2517.104880  	96.797261 
2519.033696  	96.757921 
2520.962512  	96.731199 
2522.891328  	96.722981 
2524.820144  	96.705277 
2526.748960  	96.676314 
2528.677776  	96.636823 
2530.606592  	96.627402 
2532.535408  	96.605820 
2534.464224  	96.563922 
2536.393040  	96.544558 
2538.321856  	96.552269 
2540.250672  	96.524750 
2542.179488  	96.511141 
2544.108304  	96.477404 
2546.037120  	96.455947 
2547.965936  	96.439331 
2549.894752  	96.397845 
2551.823568  	96.333589 
2553.752384  	96.335892 
2555.681200  	96.357383 
2557.610016  	96.314818 
2559.538832  	96.288634 
2561.467648  	96.256646 
2563.396464  	96.207504 
2565.325280  	96.191793 
2567.254096  	96.159644 
2569.182912  	96.128725 
2571.111728  	96.091744 
2573.040544  	96.035164 
2574.969360  	96.034353 
2576.898176  	96.028191 
2578.826992  	95.977877 
2580.755808  	95.952355 
2582.684624  	95.925495 
2584.613440  	95.935135 
2586.542256  	95.887163 
2588.471072  	95.841364 
2590.399888  	95.839732 
2592.328704  	95.817344 
2594.257520  	95.790542 
2596.186336  	95.814455 
2598.115152  	95.796218 
2600.043968  	95.783747 
2601.972784  	95.732881 
2603.901600  	95.653052 
2605.830416  	95.623129 
2607.759232  	95.620359 
2609.688048  	95.609361 
2611.616864  	95.560023 
2613.545680  	95.500960 
2615.474496  	95.479132 
2617.403312  	95.411989 
2619.332128  	95.354217 
2621.260944  	95.314378 
2623.189760  	95.268286 
2625.118576  	95.249611 
2627.047392  	95.226914 
2628.976208  	95.154692 
2630.905024  	95.068629 
2632.833840  	95.008351 
2634.762656  	94.965175 
2636.691472  	94.865702 
2638.620288  	94.803971 
2640.549104  	94.784012 
2642.477920  	94.744781 
2644.406736  	94.675912 
2646.335552  	94.610853 
2648.264368  	94.541978 
2650.193184  	94.484135 
2652.122000  	94.427562 
2654.050816  	94.373386 
2655.979632  	94.316240 
2657.908448  	94.259719 
2659.837264  	94.198958 
2661.766080  	94.140691 
2663.694896  	94.099865 
2665.623712  	94.058626 
2667.552528  	94.007005 
2669.481344  	93.973549 
2671.410160  	93.925103 
2673.338976  	93.885610 
2675.267792  	93.823299 
2677.196608  	93.772185 
2679.125424  	93.740418 
2681.054240  	93.703401 
2682.983056  	93.663841 
2684.911872  	93.645344 
2686.840688  	93.623649 
2688.769504  	93.592370 
2690.698320  	93.528395 
2692.627136  	93.492823 
2694.555952  	93.464772 
2696.484768  	93.427120 
2698.413584  	93.381755 
2700.342400  	93.336368 
2702.271216  	93.297952 
2704.200032  	93.263520 
2706.128848  	93.208629 
2708.057664  	93.153037 
2709.986480  	93.091684 
2711.915296  	93.070106 
2713.844112  	93.032213 
2715.772928  	92.979528 
2717.701744  	92.905817 
2719.630560  	92.841205 
2721.559376  	92.805762 
2723.488192  	92.765318 
2725.417008  	92.694480 
2727.345824  	92.636276 
2729.274640  	92.602605 
2731.203456  	92.580299 
2733.132272  	92.527521 
2735.061088  	92.469412 
2736.989904  	92.414815 
2738.918720  	92.373240 
2740.847536  	92.329021 
2742.776352  	92.301042 
2744.705168  	92.266052 
2746.633984  	92.213541 
2748.562800  	92.159487 
2750.491616  	92.129628 
2752.420432  	92.110530 
2754.349248  	92.066023 
2756.278064  	92.007040 
2758.206880  	91.996252 
2760.135696  	91.970892 
2762.064512  	91.926348 
2763.993328  	91.905142 
2765.922144  	91.875826 
2767.850960  	91.854543 
2769.779776  	91.794926 
2771.708592  	91.716670 
2773.637408  	91.676761 
2775.566224  	91.644437 
2777.495040  	91.620193 
2779.423856  	91.558283 
2781.352672  	91.491092 
2783.281488  	91.447534 
2785.210304  	91.384906 
2787.139120  	91.306354 
2789.067936  	91.242308 
2790.996752  	91.195649 
2792.925568  	91.126188 
2794.854384  	91.047183 
2796.783200  	90.979907 
2798.712016  	90.882000 
2800.640832  	90.795208 
2802.569648  	90.736359 
2804.498464  	90.660991 
2806.427280  	90.557516 
2808.356096  	90.458417 
2810.284912  	90.357035 
2812.213728  	90.233665 
2814.142544  	90.139270 
2816.071360  	90.040557 
2818.000176  	89.914674 
2819.928992  	89.787427 
2821.857808  	89.649809 
2823.786624  	89.511030 
2825.715440  	89.373397 
2827.644256  	89.227438 
2829.573072  	89.081106 
2831.501888  	88.904538 
2833.430704  	88.731698 
2835.359520  	88.566061 
2837.288336  	88.375090 
2839.217152  	88.149750 
2841.145968  	87.912532 
2843.074784  	87.637862 
2845.003600  	87.316309 
2846.932416  	86.988566 
2848.861232  	86.665586 
2850.790048  	86.378822 
2852.718864  	86.190603 
2854.647680  	86.061689 
2856.576496  	85.981825 
2858.505312  	85.927176 
2860.434128  	85.899685 
2862.362944  	85.861395 
2864.291760  	85.753271 
2866.220576  	85.614342 
2868.149392  	85.405039 
2870.078208  	85.182518 
2872.007024  	85.007967 
2873.935840  	84.828587 
2875.864656  	84.641696 
2877.793472  	84.494106 
2879.722288  	84.359384 
2881.651104  	84.204840 
2883.579920  	84.066774 
2885.508736  	83.926556 
2887.437552  	83.814592 
2889.366368  	83.689785 
2891.295184  	83.563883 
2893.224000  	83.455361 
2895.152816  	83.340747 
2897.081632  	83.250335 
2899.010448  	83.163998 
2900.939264  	83.080254 
2902.868080  	82.996278 
2904.796896  	82.881795 
2906.725712  	82.707585 
2908.654528  	82.493924 
2910.583344  	82.266028 
2912.512160  	81.997787 
2914.440976  	81.634995 
2916.369792  	81.238145 
2918.298608  	80.814961 
2920.227424  	80.412540 
2922.156240  	80.072641 
2924.085056  	79.813328 
2926.013872  	79.674951 
2927.942688  	79.674326 
2929.871504  	79.805920 
2931.800320  	80.016113 
2933.729136  	80.309558 
2935.657952  	80.685290 
2937.586768  	81.090681 
2939.515584  	81.492679 
2941.444400  	81.875744 
2943.373216  	82.253798 
2945.302032  	82.588104 
2947.230848  	82.871996 
2949.159664  	83.138655 
2951.088480  	83.377099 
2953.017296  	83.602281 
2954.946112  	83.817330 
2956.874928  	84.015293 
2958.803744  	84.214247 
2960.732560  	84.484719 
2962.661376  	84.787584 
2964.590192  	85.083374 
2966.519008  	85.377527 
2968.447824  	85.621740 
2970.376640  	85.872954 
2972.305456  	86.141606 
2974.234272  	86.342295 
2976.163088  	86.489391 
2978.091904  	86.646451 
2980.020720  	86.765871 
2981.949536  	86.883894 
2983.878352  	86.978836 
2985.807168  	87.041335 
2987.735984  	87.089374 
2989.664800  	87.121673 
2991.593616  	87.143810 
2993.522432  	87.152331 
2995.451248  	87.149379 
2997.380064  	87.117789 
2999.308880  	87.046292 
3001.237696  	86.988951 
3003.166512  	86.919713 
3005.095328  	86.831731 
3007.024144  	86.755733 
3008.952960  	86.651890 
3010.881776  	86.548695 
3012.810592  	86.453333 
3014.739408  	86.348855 
3016.668224  	86.235129 
3018.597040  	86.118996 
3020.525856  	85.988347 
3022.454672  	85.816123 
3024.383488  	85.656937 
3026.312304  	85.482154 
3028.241120  	85.316343 
3030.169936  	85.176958 
3032.098752  	85.032816 
3034.027568  	84.896160 
3035.956384  	84.724317 
3037.885200  	84.568007 
3039.814016  	84.400879 
3041.742832  	84.215092 
3043.671648  	84.008727 
3045.600464  	83.797006 
3047.529280  	83.632010 
3049.458096  	83.472771 
3051.386912  	83.295975 
3053.315728  	83.105000 
3055.244544  	82.912889 
3057.173360  	82.708111 
3059.102176  	82.509343 
3061.030992  	82.322309 
3062.959808  	82.121770 
3064.888624  	81.905713 
3066.817440  	81.682235 
3068.746256  	81.474057 
3070.675072  	81.283908 
3072.603888  	81.075688 
3074.532704  	80.885168 
3076.461520  	80.685105 
3078.390336  	80.463794 
3080.319152  	80.267305 
3082.247968  	80.057356 
3084.176784  	79.802486 
3086.105600  	79.570465 
3088.034416  	79.373623 
3089.963232  	79.162210 
3091.892048  	78.923627 
3093.820864  	78.736349 
3095.749680  	78.541610 
3097.678496  	78.309933 
3099.607312  	78.076391 
3101.536128  	77.873572 
3103.464944  	77.678634 
3105.393760  	77.453477 
3107.322576  	77.238154 
3109.251392  	77.027265 
3111.180208  	76.827833 
3113.109024  	76.599346 
3115.037840  	76.344820 
3116.966656  	76.122093 
3118.895472  	75.913494 
3120.824288  	75.684111 
3122.753104  	75.470644 
3124.681920  	75.263789 
3126.610736  	75.033886 
3128.539552  	74.789446 
3130.468368  	74.565550 
3132.397184  	74.351255 
3134.326000  	74.130727 
3136.254816  	73.913686 
3138.183632  	73.714257 
3140.112448  	73.491744 
3142.041264  	73.249479 
3143.970080  	73.028392 
3145.898896  	72.806924 
3147.827712  	72.586036 
3149.756528  	72.369194 
3151.685344  	72.134072 
3153.614160  	71.922225 
3155.542976  	71.706363 
3157.471792  	71.466368 
3159.400608  	71.244563 
3161.329424  	71.053025 
3163.258240  	70.873612 
3165.187056  	70.659038 
3167.115872  	70.433019 
3169.044688  	70.229538 
3170.973504  	69.997374 
3172.902320  	69.765932 
3174.831136  	69.549269 
3176.759952  	69.359079 
3178.688768  	69.189005 
3180.617584  	69.031058 
3182.546400  	68.807547 
3184.475216  	68.604008 
3186.404032  	68.402172 
3188.332848  	68.213546 
3190.261664  	68.044697 
3192.190480  	67.865234 
3194.119296  	67.733867 
3196.048112  	67.577244 
3197.976928  	67.366621 
3199.905744  	67.166285 
3201.834560  	67.024863 
3203.763376  	66.859109 
3205.692192  	66.680381 
3207.621008  	66.496224 
3209.549824  	66.344714 
3211.478640  	66.227121 
3213.407456  	66.073037 
3215.336272  	65.920404 
3217.265088  	65.792706 
3219.193904  	65.681420 
3221.122720  	65.553042 
3223.051536  	65.409359 
3224.980352  	65.297338 
3226.909168  	65.187840 
3228.837984  	65.067824 
3230.766800  	64.998013 
3232.695616  	64.902207 
3234.624432  	64.783231 
3236.553248  	64.655519 
3238.482064  	64.546965 
3240.410880  	64.472598 
3242.339696  	64.417864 
3244.268512  	64.362466 
3246.197328  	64.286017 
3248.126144  	64.196388 
3250.054960  	64.121982 
3251.983776  	64.069185 
3253.912592  	64.058836 
3255.841408  	63.981426 
3257.770224  	63.890623 
3259.699040  	63.856994 
3261.627856  	63.847216 
3263.556672  	63.811819 
3265.485488  	63.809212 
3267.414304  	63.805698 
3269.343120  	63.751737 
3271.271936  	63.688044 
3273.200752  	63.664702 
3275.129568  	63.652461 
3277.058384  	63.640224 
3278.987200  	63.643975 
3280.916016  	63.670102 
3282.844832  	63.632436 
3284.773648  	63.591983 
3286.702464  	63.642365 
3288.631280  	63.702049 
3290.560096  	63.742161 
3292.488912  	63.736800 
3294.417728  	63.703021 
3296.346544  	63.691829 
3298.275360  	63.719672 
3300.204176  	63.749604 
3302.132992  	63.782595 
3304.061808  	63.857461 
3305.990624  	63.899973 
3307.919440  	63.903211 
3309.848256  	63.912504 
3311.777072  	63.960169 
3313.705888  	64.002002 
3315.634704  	64.025592 
3317.563520  	64.069447 
3319.492336  	64.131843 
3321.421152  	64.168074 
3323.349968  	64.196127 
3325.278784  	64.248453 
3327.207600  	64.330078 
3329.136416  	64.389624 
3331.065232  	64.420848 
3332.994048  	64.484075 
3334.922864  	64.597261 
3336.851680  	64.690269 
3338.780496  	64.740716 
3340.709312  	64.793694 
3342.638128  	64.864760 
3344.566944  	64.946283 
3346.495760  	65.060922 
3348.424576  	65.146169 
3350.353392  	65.209382 
3352.282208  	65.285000 
3354.211024  	65.361023 
3356.139840  	65.460247 
3358.068656  	65.606358 
3359.997472  	65.715216 
3361.926288  	65.817292 
3363.855104  	65.978115 
3365.783920  	66.186058 
3367.712736  	66.325283 
3369.641552  	66.388382 
3371.570368  	66.445177 
3373.499184  	66.551512 
3375.428000  	66.688954 
3377.356816  	66.839230 
3379.285632  	66.977500 
3381.214448  	67.099828 
3383.143264  	67.243414 
3385.072080  	67.415941 
3387.000896  	67.608113 
3388.929712  	67.801538 
3390.858528  	67.942608 
3392.787344  	68.048343 
3394.716160  	68.217928 
3396.644976  	68.459736 
3398.573792  	68.694807 
3400.502608  	68.858398 
3402.431424  	68.969966 
3404.360240  	69.145111 
3406.289056  	69.318309 
3408.217872  	69.482918 
3410.146688  	69.712774 
3412.075504  	69.918941 
3414.004320  	70.072751 
3415.933136  	70.165812 
3417.861952  	70.319096 
3419.790768  	70.558082 
3421.719584  	70.786064 
3423.648400  	71.002363 
3425.577216  	71.211972 
3427.506032  	71.446664 
3429.434848  	71.674120 
3431.363664  	71.871998 
3433.292480  	72.085182 
3435.221296  	72.280440 
3437.150112  	72.443586 
3439.078928  	72.584584 
3441.007744  	72.777393 
3442.936560  	73.013483 
3444.865376  	73.246102 
3446.794192  	73.488627 
3448.723008  	73.722387 
3450.651824  	73.947919 
3452.580640  	74.173620 
3454.509456  	74.381004 
3456.438272  	74.591718 
3458.367088  	74.786090 
3460.295904  	74.994121 
3462.224720  	75.198022 
3464.153536  	75.459638 
3466.082352  	75.727252 
3468.011168  	75.931075 
3469.939984  	76.076955 
3471.868800  	76.250975 
3473.797616  	76.480557 
3475.726432  	76.712297 
3477.655248  	76.916556 
3479.584064  	77.104548 
3481.512880  	77.312620 
3483.441696  	77.539158 
3485.370512  	77.788692 
3487.299328  	78.050140 
3489.228144  	78.252958 
3491.156960  	78.455920 
3493.085776  	78.676282 
3495.014592  	78.894236 
3496.943408  	79.092383 
3498.872224  	79.276401 
3500.801040  	79.445311 
3502.729856  	79.702524 
3504.658672  	79.982684 
3506.587488  	80.217902 
3508.516304  	80.433092 
3510.445120  	80.740771 
3512.373936  	81.050051 
3514.302752  	81.248279 
3516.231568  	81.430157 
3518.160384  	81.640075 
3520.089200  	81.848411 
3522.018016  	82.026411 
3523.946832  	82.205070 
3525.875648  	82.496849 
3527.804464  	82.807867 
3529.733280  	83.125411 
3531.662096  	83.435357 
3533.590912  	83.667125 
3535.519728  	83.902867 
3537.448544  	84.173091 
3539.377360  	84.384968 
3541.306176  	84.572499 
3543.234992  	84.715943 
3545.163808  	84.932435 
3547.092624  	85.253303 
3549.021440  	85.588844 
3550.950256  	85.827701 
3552.879072  	86.099494 
3554.807888  	86.420905 
3556.736704  	86.614103 
3558.665520  	86.793319 
3560.594336  	86.974693 
3562.523152  	87.074757 
3564.451968  	87.154592 
3566.380784  	87.369238 
3568.309600  	87.886616 
3570.238416  	88.364075 
3572.167232  	88.656797 
3574.096048  	88.844940 
3576.024864  	89.110162 
3577.953680  	89.337643 
3579.882496  	89.567445 
3581.811312  	89.731328 
3583.740128  	89.788748 
3585.668944  	89.893486 
3587.597760  	90.150672 
3589.526576  	90.510584 
3591.455392  	90.741534 
3593.384208  	90.837915 
3595.313024  	91.075165 
3597.241840  	91.355300 
3599.170656  	91.612624 
3601.099472  	91.838240 
3603.028288  	92.055468 
3604.957104  	92.162873 
3606.885920  	92.203770 
3608.814736  	92.372984 
3610.743552  	92.604668 
3612.672368  	92.769683 
3614.601184  	92.944436 
3616.530000  	93.112173 
3618.458816  	93.338902 
3620.387632  	93.648316 
3622.316448  	93.906499 
3624.245264  	93.961955 
3626.174080  	93.909134 
3628.102896  	94.003400 
3630.031712  	94.336448 
3631.960528  	94.664310 
3633.889344  	94.951313 
3635.818160  	95.197609 
3637.746976  	95.382385 
3639.675792  	95.467474 
3641.604608  	95.475954 
3643.533424  	95.412635 
3645.462240  	95.316548 
3647.391056  	95.120623 
3649.319872  	95.361770 
3651.248688  	95.839560 
3653.177504  	96.198337 
3655.106320  	96.347394 
3657.035136  	96.522206 
3658.963952  	96.750362 
3660.892768  	96.917816 
3662.821584  	97.071695 
3664.750400  	97.113426 
3666.679216  	96.972786 
3668.608032  	96.797129 
3670.536848  	96.763787 
3672.465664  	96.858826 
3674.394480  	96.814368 
3676.323296  	96.902329 
3678.252112  	97.222476 
3680.180928  	97.507568 
3682.109744  	97.650681 
3684.038560  	97.593030 
3685.967376  	97.450742 
3687.896192  	97.282150 
3689.825008  	97.235692 
3691.753824  	97.491715 
3693.682640  	97.772945 
3695.611456  	97.900048 
3697.540272  	97.904426 
3699.469088  	97.885196 
3701.397904  	97.839290 
3703.326720  	97.918931 
3705.255536  	97.968038 
3707.184352  	97.837849 
3709.113168  	97.604835 
3711.041984  	97.567872 
3712.970800  	97.782158 
3714.899616  	97.961018 
3716.828432  	98.038383 
3718.757248  	98.000712 
3720.686064  	97.854250 
3722.614880  	97.719044 
3724.543696  	97.732244 
3726.472512  	97.760827 
3728.401328  	97.800202 
3730.330144  	97.751961 
3732.258960  	97.475273 
3734.187776  	97.238606 
3736.116592  	97.362763 
3738.045408  	97.657540 
3739.974224  	97.681686 
3741.903040  	97.636473 
3743.831856  	97.580001 
3745.760672  	97.417402 
3747.689488  	97.472233 
3749.618304  	97.426284 
3751.547120  	97.508755 
3753.475936  	97.732197 
3755.404752  	97.870931 
3757.333568  	97.899393 
3759.262384  	97.955464 
3761.191200  	98.089113 
3763.120016  	98.170172 
3765.048832  	98.059872 
3766.977648  	97.984871 
3768.906464  	98.092642 
3770.835280  	98.179508 
3772.764096  	98.308198 
3774.692912  	98.293191 
3776.621728  	98.238733 
3778.550544  	98.110436 
3780.479360  	98.087982 
3782.408176  	98.185293 
3784.336992  	98.231323 
3786.265808  	98.255324 
3788.194624  	98.310054 
3790.123440  	98.338743 
3792.052256  	98.328388 
3793.981072  	98.246369 
3795.909888  	98.029366 
3797.838704  	97.845405 
3799.767520  	97.883432 
3801.696336  	97.824922 
3803.625152  	97.932583 
3805.553968  	98.100753 
3807.482784  	98.139147 
3809.411600  	98.217297 
3811.340416  	98.215804 
3813.269232  	98.091384 
3815.198048  	97.911085 
3817.126864  	97.723706 
3819.055680  	97.732369 
3820.984496  	97.660852 
3822.913312  	97.789029 
3824.842128  	98.001622 
3826.770944  	98.083453 
3828.699760  	98.084295 
3830.628576  	98.033254 
3832.557392  	97.903654 
3834.486208  	97.776952 
3836.415024  	97.640856 
3838.343840  	97.574935 
3840.272656  	97.686749 
3842.201472  	97.941941 
3844.130288  	98.078911 
3846.059104  	98.127264 
3847.987920  	98.015347 
3849.916736  	97.753365 
3851.845552  	97.557990 
3853.774368  	97.547572 
3855.703184  	97.752330 
3857.632000  	97.949921 
3859.560816  	98.040294 
3861.489632  	97.914134 
3863.418448  	97.792745 
3865.347264  	97.815912 
3867.276080  	97.830221 
3869.204896  	97.656531 
3871.133712  	97.616493 
3873.062528  	97.837347 
3874.991344  	97.919687 
3876.920160  	97.995972 
3878.848976  	97.944357 
3880.777792  	97.771206 
3882.706608  	97.817623 
3884.635424  	97.871360 
3886.564240  	97.882358 
3888.493056  	98.028180 
3890.421872  	97.983263 
3892.350688  	97.925869 
3894.279504  	97.982461 
3896.208320  	97.982098 
3898.137136  	97.880977 
3900.065952  	97.697180 
3901.994768  	97.643777 
3903.923584  	97.751240 
3905.852400  	97.965988 
3907.781216  	98.193269 
3909.710032  	98.319222 
3911.638848  	98.248839 
3913.567664  	98.072746 
3915.496480  	97.939557 
3917.425296  	97.916310 
3919.354112  	97.979691 
3921.282928  	98.000355 
3923.211744  	97.971343 
3925.140560  	97.928220 
3927.069376  	97.957624 
3928.998192  	97.933093 
3930.927008  	97.913473 
3932.855824  	97.976691 
3934.784640  	98.076625 
3936.713456  	98.069660 
3938.642272  	98.016596 
3940.571088  	97.983009 
3942.499904  	97.948449 
3944.428720  	97.967393 
3946.357536  	97.971653 
3948.286352  	97.928876 
3950.215168  	98.028665 
3952.143984  	98.117695 
3954.072800  	98.153350 
3956.001616  	98.121651 
3957.930432  	98.092410 
3959.859248  	98.114971 
3961.788064  	98.106332 
3963.716880  	98.088911 
3965.645696  	98.119621 
3967.574512  	98.129012 
3969.503328  	98.150370 
3971.432144  	98.128532 
3973.360960  	98.083645 
3975.289776  	98.099517 
3977.218592  	98.111115 
3979.147408  	98.089208 
3981.076224  	98.073524 
3983.005040  	98.072775 
3984.933856  	98.098325 
3986.862672  	98.101198 
3988.791488  	98.071419 
3990.720304  	98.068140 
3992.649120  	98.073595 
3994.577936  	98.048362 
3996.506752  	98.086388 
3998.435568  	98.133600 
4000.364384  	98.092764 