##TITLE=No Description
##DATA TYPE=INFRARED SPECTRUM
##XUNITS=1/CM
##YUNITS=%T
399.264912  	97.357241 
401.193728  	89.832377 
403.122544  	93.137961 
405.051360  	101.352975 
406.980176  	103.830250 
408.908992  	99.791874 
410.837808  	97.013334 
412.766624  	94.734698 
414.695440  	96.825888 
416.624256  	100.314784 
418.553072  	96.261537 
420.481888  	99.193744 
422.410704  	104.649403 
424.339520  	107.036236 
426.268336  	109.013285 
428.197152  	103.748006 
430.125968  	101.218547 
432.054784  	101.171180 
433.983600  	100.557134 
435.912416  	99.866604 
437.841232  	104.205747 
439.770048  	105.396069 
441.698864  	101.625312 
443.627680  	102.540398 
445.556496  	104.374390 
447.485312  	103.118321 
449.414128  	98.149497 
451.342944  	98.654007 
453.271760  	98.567504 
455.200576  	97.105297 
457.129392  	98.642428 
459.058208  	100.789748 
460.987024  	101.065687 
462.915840  	101.893023 
464.844656  	104.142670 
466.773472  	110.764608 
468.702288  	109.256389 
470.631104  	103.177982 
472.559920  	100.004632 
474.488736  	95.644155 
476.417552  	95.832317 
478.346368  	97.831503 
480.275184  	102.427121 
482.204000  	101.617698 
484.132816  	96.520948 
486.061632  	98.070123 
487.990448  	104.198596 
489.919264  	108.586266 
491.848080  	110.028485 
493.776896  	104.659639 
495.705712  	101.267530 
497.634528  	102.391483 
499.563344  	100.877072 
501.492160  	97.103086 
503.420976  	99.217218 
505.349792  	101.763365 
507.278608  	101.190959 
509.207424  	101.332679 
511.136240  	101.568884 
513.065056  	101.639388 
514.993872  	101.172021 
516.922688  	100.007665 
518.851504  	100.669343 
520.780320  	100.549226 
522.709136  	99.412921 
524.637952  	98.969755 
526.566768  	99.405639 
528.495584  	100.887917 
530.424400  	101.616285 
532.353216  	101.507551 
534.282032  	101.415489 
536.210848  	99.552014 
538.139664  	98.296963 
540.068480  	97.519673 
541.997296  	98.240560 
543.926112  	98.346696 
545.854928  	98.494556 
547.783744  	98.535733 
549.712560  	97.367664 
551.641376  	97.400168 
553.570192  	98.171976 
555.499008  	98.104435 
557.427824  	97.659416 
559.356640  	98.436331 
561.285456  	99.155586 
563.214272  	98.855673 
565.143088  	98.482166 
567.071904  	98.114435 
569.000720  	97.848589 
570.929536  	97.558331 
572.858352  	96.982107 
574.787168  	97.601703 
576.715984  	97.773974 
578.644800  	97.431033 
580.573616  	97.489701 
582.502432  	97.659162 
584.431248  	97.470145 
586.360064  	97.314910 
588.288880  	97.335251 
590.217696  	97.002669 
592.146512  	96.711409 
594.075328  	96.609550 
596.004144  	96.862744 
597.932960  	97.038210 
599.861776  	96.966019 
601.790592  	96.985479 
603.719408  	97.184583 
605.648224  	96.995398 
607.577040  	96.835937 
609.505856  	96.627143 
611.434672  	96.767710 
613.363488  	97.362537 
615.292304  	97.549360 
617.221120  	97.391350 
619.149936  	97.387424 
621.078752  	97.143659 
623.007568  	97.014752 
624.936384  	97.198634 
626.865200  	97.290577 
628.794016  	97.273626 
630.722832  	97.234505 
632.651648  	97.141862 
634.580464  	97.172120 
636.509280  	97.301830 
638.438096  	97.190180 
640.366912  	97.047158 
642.295728  	97.054695 
644.224544  	97.175276 
646.153360  	97.227987 
648.082176  	97.102436 
650.010992  	97.023965 
651.939808  	96.996895 
653.868624  	96.930413 
655.797440  	97.029552 
657.726256  	97.029858 
659.655072  	96.966378 
661.583888  	97.112779 
663.512704  	97.083406 
665.441520  	96.906943 
667.370336  	96.924119 
669.299152  	97.052257 
671.227968  	97.046799 
673.156784  	97.044835 
675.085600  	97.016257 
677.014416  	97.076346 
678.943232  	97.062854 
680.872048  	97.031075 
682.800864  	97.078102 
684.729680  	97.072743 
686.658496  	97.053695 
688.587312  	97.057904 
690.516128  	97.094690 
692.444944  	97.065615 
694.373760  	97.084804 
696.302576  	97.113785 
698.231392  	97.063404 
700.160208  	97.097943 
702.089024  	97.094830 
704.017840  	97.048982 
705.946656  	97.083887 
707.875472  	97.159493 
709.804288  	97.159678 
711.733104  	97.164273 
713.661920  	97.219030 
715.590736  	97.276912 
717.519552  	97.320744 
719.448368  	97.312705 
721.377184  	97.325011 
723.306000  	97.417418 
725.234816  	97.490440 
727.163632  	97.519015 
729.092448  	97.506201 
731.021264  	97.501889 
732.950080  	97.513911 
734.878896  	97.516171 
736.807712  	97.526803 
738.736528  	97.581942 
740.665344  	97.549314 
742.594160  	97.505598 
744.522976  	97.511185 
746.451792  	97.533896 
748.380608  	97.513440 
750.309424  	97.484989 
752.238240  	97.447233 
754.167056  	97.384662 
756.095872  	97.383429 
758.024688  	97.399846 
759.953504  	97.349661 
761.882320  	97.309265 
763.811136  	97.364527 
765.739952  	97.419965 
767.668768  	97.477522 
769.597584  	97.549745 
771.526400  	97.636897 
773.455216  	97.688308 
775.384032  	97.717845 
777.312848  	97.746798 
779.241664  	97.801688 
781.170480  	97.825468 
783.099296  	97.851958 
785.028112  	97.878615 
786.956928  	97.877512 
788.885744  	97.868792 
790.814560  	97.916914 
792.743376  	97.955526 
794.672192  	97.952138 
796.601008  	97.954201 
798.529824  	97.958433 
800.458640  	98.012207 
802.387456  	98.056425 
804.316272  	98.052341 
806.245088  	98.065708 
808.173904  	98.079163 
810.102720  	98.092267 
812.031536  	98.062169 
813.960352  	98.013767 
815.889168  	98.019290 
817.817984  	98.057304 
819.746800  	98.042909 
821.675616  	98.049057 
823.604432  	98.094002 
825.533248  	98.099804 
827.462064  	98.049221 
829.390880  	98.012208 
831.319696  	97.965500 
833.248512  	97.907024 
835.177328  	97.886592 
837.106144  	97.901390 
839.034960  	97.911801 
840.963776  	97.875243 
842.892592  	97.823794 
844.821408  	97.833759 
846.750224  	97.803062 
848.679040  	97.746208 
850.607856  	97.795722 
852.536672  	97.822965 
854.465488  	97.786182 
856.394304  	97.761629 
858.323120  	97.770774 
860.251936  	97.817251 
862.180752  	97.833730 
864.109568  	97.844481 
866.038384  	97.875887 
867.967200  	97.945040 
869.896016  	97.996763 
871.824832  	98.043290 
873.753648  	98.117654 
875.682464  	98.156914 
877.611280  	98.181768 
879.540096  	98.224858 
881.468912  	98.259402 
883.397728  	98.260601 
885.326544  	98.243394 
887.255360  	98.195623 
889.184176  	98.151869 
891.112992  	98.108604 
893.041808  	98.030358 
894.970624  	97.996941 
896.899440  	97.982640 
898.828256  	97.955364 
900.757072  	97.939424 
902.685888  	97.956030 
904.614704  	97.925479 
906.543520  	97.837352 
908.472336  	97.785113 
910.401152  	97.750941 
912.329968  	97.691199 
914.258784  	97.608739 
916.187600  	97.540407 
918.116416  	97.522440 
920.045232  	97.498570 
921.974048  	97.430904 
923.902864  	97.418644 
925.831680  	97.428384 
927.760496  	97.400990 
929.689312  	97.407294 
931.618128  	97.473330 
933.546944  	97.495553 
935.475760  	97.499736 
937.404576  	97.523632 
939.333392  	97.542957 
941.262208  	97.574697 
943.191024  	97.630656 
945.119840  	97.661597 
947.048656  	97.673612 
948.977472  	97.700423 
950.906288  	97.715440 
952.835104  	97.710878 
954.763920  	97.713696 
956.692736  	97.658112 
958.621552  	97.546272 
960.550368  	97.442813 
962.479184  	97.354705 
964.408000  	97.258031 
966.336816  	97.136328 
968.265632  	96.987841 
970.194448  	96.858577 
972.123264  	96.702401 
974.052080  	96.547689 
975.980896  	96.351539 
977.909712  	96.160088 
979.838528  	95.972541 
981.767344  	95.759488 
983.696160  	95.534347 
985.624976  	95.352265 
987.553792  	95.210255 
989.482608  	95.113150 
991.411424  	95.013567 
993.340240  	94.946418 
995.269056  	94.942974 
997.197872  	94.960598 
999.126688  	95.013019 
1001.055504  	95.051195 
1002.984320  	95.063802 
1004.913136  	95.092514 
1006.841952  	95.109449 
1008.770768  	95.093020 
1010.699584  	95.057483 
1012.628400  	95.037238 
1014.557216  	95.037041 
1016.486032  	95.066518 
1018.414848  	95.113250 
1020.343664  	95.182512 
1022.272480  	95.243078 
1024.201296  	95.299656 
1026.130112  	95.387550 
1028.058928  	95.518870 
1029.987744  	95.624873 
1031.916560  	95.685037 
1033.845376  	95.772970 
1035.774192  	95.858188 
1037.703008  	95.920048 
1039.631824  	95.966932 
1041.560640  	96.042100 
1043.489456  	96.131765 
1045.418272  	96.209590 
1047.347088  	96.269972 
1049.275904  	96.356327 
1051.204720  	96.469768 
1053.133536  	96.589360 
1055.062352  	96.707280 
1056.991168  	96.828505 
1058.919984  	96.976436 
1060.848800  	97.086562 
1062.777616  	97.177639 
1064.706432  	97.256721 
1066.635248  	97.304626 
1068.564064  	97.252193 
1070.492880  	97.094060 
1072.421696  	96.929357 
1074.350512  	96.785737 
1076.279328  	96.705393 
1078.208144  	96.689450 
1080.136960  	96.746854 
1082.065776  	96.871449 
1083.994592  	97.025095 
1085.923408  	97.165149 
1087.852224  	97.257731 
1089.781040  	97.347252 
1091.709856  	97.415993 
1093.638672  	97.468196 
1095.567488  	97.462561 
1097.496304  	97.437920 
1099.425120  	97.416704 
1101.353936  	97.404303 
1103.282752  	97.407321 
1105.211568  	97.435269 
1107.140384  	97.462383 
1109.069200  	97.480824 
1110.998016  	97.521656 
1112.926832  	97.564667 
1114.855648  	97.599896 
1116.784464  	97.657295 
1118.713280  	97.677324 
1120.642096  	97.672083 
1122.570912  	97.696419 
1124.499728  	97.750344 
1126.428544  	97.790652 
1128.357360  	97.829147 
1130.286176  	97.847708 
1132.214992  	97.842976 
1134.143808  	97.839270 
1136.072624  	97.809920 
1138.001440  	97.770058 
1139.930256  	97.681877 
1141.859072  	97.580119 
1143.787888  	97.506663 
1145.716704  	97.443319 
1147.645520  	97.394244 
1149.574336  	97.356432 
1151.503152  	97.371600 
1153.431968  	97.443570 
1155.360784  	97.558848 
1157.289600  	97.669330 
1159.218416  	97.806686 
1161.147232  	97.979611 
1163.076048  	98.148343 
1165.004864  	98.304187 
1166.933680  	98.442296 
1168.862496  	98.578463 
1170.791312  	98.687073 
1172.720128  	98.773527 
1174.648944  	98.835096 
1176.577760  	98.868988 
1178.506576  	98.898784 
1180.435392  	98.934627 
1182.364208  	98.944936 
1184.293024  	98.930402 
1186.221840  	98.899247 
1188.150656  	98.876597 
1190.079472  	98.861992 
1192.008288  	98.835068 
1193.937104  	98.809366 
1195.865920  	98.775541 
1197.794736  	98.741026 
1199.723552  	98.721017 
1201.652368  	98.716034 
1203.581184  	98.711894 
1205.510000  	98.698077 
1207.438816  	98.708663 
1209.367632  	98.714489 
1211.296448  	98.706313 
1213.225264  	98.729400 
1215.154080  	98.753365 
1217.082896  	98.731061 
1219.011712  	98.694478 
1220.940528  	98.695902 
1222.869344  	98.682319 
1224.798160  	98.650389 
1226.726976  	98.633166 
1228.655792  	98.616569 
1230.584608  	98.603133 
1232.513424  	98.592362 
1234.442240  	98.577293 
1236.371056  	98.572499 
1238.299872  	98.541080 
1240.228688  	98.532182 
1242.157504  	98.544902 
1244.086320  	98.545209 
1246.015136  	98.541030 
1247.943952  	98.537899 
1249.872768  	98.535675 
1251.801584  	98.536421 
1253.730400  	98.545196 
1255.659216  	98.539361 
1257.588032  	98.507904 
1259.516848  	98.494136 
1261.445664  	98.500031 
1263.374480  	98.504356 
1265.303296  	98.507538 
1267.232112  	98.511882 
1269.160928  	98.516072 
1271.089744  	98.532146 
1273.018560  	98.546122 
1274.947376  	98.565957 
1276.876192  	98.560153 
1278.805008  	98.538118 
1280.733824  	98.527734 
1282.662640  	98.519677 
1284.591456  	98.500941 
1286.520272  	98.483092 
1288.449088  	98.487221 
1290.377904  	98.489159 
1292.306720  	98.480696 
1294.235536  	98.471302 
1296.164352  	98.434673 
1298.093168  	98.413404 
1300.021984  	98.423630 
1301.950800  	98.439508 
1303.879616  	98.451409 
1305.808432  	98.435443 
1307.737248  	98.426330 
1309.666064  	98.409378 
1311.594880  	98.347989 
1313.523696  	98.311357 
1315.452512  	98.316945 
1317.381328  	98.288605 
1319.310144  	98.268742 
1321.238960  	98.299874 
1323.167776  	98.312557 
1325.096592  	98.295767 
1327.025408  	98.251528 
1328.954224  	98.229760 
1330.883040  	98.230918 
1332.811856  	98.242355 
1334.740672  	98.194224 
1336.669488  	98.059876 
1338.598304  	97.929706 
1340.527120  	98.026062 
1342.455936  	98.191188 
1344.384752  	98.217289 
1346.313568  	98.201618 
1348.242384  	98.207130 
1350.171200  	98.218796 
1352.100016  	98.200402 
1354.028832  	98.167213 
1355.957648  	98.153207 
1357.886464  	98.128527 
1359.815280  	98.041457 
1361.744096  	97.917041 
1363.672912  	97.980858 
1365.601728  	98.100653 
1367.530544  	98.070668 
1369.459360  	98.076452 
1371.388176  	98.063653 
1373.316992  	97.931368 
1375.245808  	97.964652 
1377.174624  	98.079632 
1379.103440  	98.124844 
1381.032256  	98.159773 
1382.961072  	98.177505 
1384.889888  	98.135000 
1386.818704  	98.033279 
1388.747520  	98.114307 
1390.676336  	98.192733 
1392.605152  	98.104315 
1394.533968  	97.927181 
1396.462784  	97.924567 
1398.391600  	97.974234 
1400.320416  	98.114979 
1402.249232  	98.169172 
1404.178048  	98.086483 
1406.106864  	98.114693 
1408.035680  	98.176440 
1409.964496  	98.155725 
1411.893312  	98.153775 
1413.822128  	98.167074 
1415.750944  	98.048699 
1417.679760  	97.847959 
1419.608576  	97.940663 
1421.537392  	98.124676 
1423.466208  	98.127367 
1425.395024  	98.232235 
1427.323840  	98.285513 
1429.252656  	98.218500 
1431.181472  	98.231809 
1433.110288  	98.239637 
1435.039104  	98.111167 
1436.967920  	98.097781 
1438.896736  	98.320329 
1440.825552  	98.408533 
1442.754368  	98.411108 
1444.683184  	98.363561 
1446.612000  	98.265317 
1448.540816  	98.279920 
1450.469632  	98.319787 
1452.398448  	98.243664 
1454.327264  	98.060370 
1456.256080  	97.712162 
1458.184896  	97.852223 
1460.113712  	98.243238 
1462.042528  	98.364835 
1463.971344  	98.289969 
1465.900160  	98.390486 
1467.828976  	98.497915 
1469.757792  	98.404410 
1471.686608  	98.133693 
1473.615424  	98.149038 
1475.544240  	98.373472 
1477.473056  	98.601670 
1479.401872  	98.703993 
1481.330688  	98.710561 
1483.259504  	98.760166 
1485.188320  	98.684361 
1487.117136  	98.465548 
1489.045952  	98.290018 
1490.974768  	98.520163 
1492.903584  	98.758146 
1494.832400  	98.683669 
1496.761216  	98.527538 
1498.690032  	98.593348 
1500.618848  	98.734496 
1502.547664  	98.760436 
1504.476480  	98.501922 
1506.405296  	97.807363 
1508.334112  	97.980786 
1510.262928  	98.417917 
1512.191744  	98.622157 
1514.120560  	98.573834 
1516.049376  	98.339714 
1517.978192  	98.332062 
1519.907008  	98.258062 
1521.835824  	98.173626 
1523.764640  	98.368908 
1525.693456  	98.399058 
1527.622272  	98.510917 
1529.551088  	98.645527 
1531.479904  	98.528361 
1533.408720  	98.380660 
1535.337536  	98.535476 
1537.266352  	98.428692 
1539.195168  	97.899977 
1541.123984  	97.805718 
1543.052800  	98.043421 
1544.981616  	98.320721 
1546.910432  	98.566512 
1548.839248  	98.500158 
1550.768064  	98.475913 
1552.696880  	98.469629 
1554.625696  	98.290639 
1556.554512  	98.085276 
1558.483328  	97.728196 
1560.412144  	98.224094 
1562.340960  	98.535618 
1564.269776  	98.570615 
1566.198592  	98.576197 
1568.127408  	98.466880 
1570.056224  	98.420368 
1571.985040  	98.581047 
1573.913856  	98.531364 
1575.842672  	98.379472 
1577.771488  	98.523188 
1579.700304  	98.678894 
1581.629120  	98.700502 
1583.557936  	98.708008 
1585.486752  	98.713109 
1587.415568  	98.684042 
1589.344384  	98.658706 
1591.273200  	98.659124 
1593.202016  	98.647114 
1595.130832  	98.655832 
1597.059648  	98.686546 
1598.988464  	98.689703 
1600.917280  	98.650017 
1602.846096  	98.621983 
1604.774912  	98.628628 
1606.703728  	98.614246 
1608.632544  	98.597513 
1610.561360  	98.622974 
1612.490176  	98.620293 
1614.418992  	98.499675 
1616.347808  	98.350642 
1618.276624  	98.491603 
1620.205440  	98.540819 
1622.134256  	98.383302 
1624.063072  	98.385594 
1625.991888  	98.472481 
1627.920704  	98.465467 
1629.849520  	98.543516 
1631.778336  	98.556402 
1633.707152  	98.359871 
1635.635968  	98.074693 
1637.564784  	98.251799 
1639.493600  	98.450108 
1641.422416  	98.519864 
1643.351232  	98.446966 
1645.280048  	98.160229 
1647.208864  	98.002697 
1649.137680  	98.229147 
1651.066496  	98.173670 
1652.995312  	97.805452 
1654.924128  	98.189106 
1656.852944  	98.515448 
1658.781760  	98.599094 
1660.710576  	98.519130 
1662.639392  	98.459827 
1664.568208  	98.589888 
1666.497024  	98.578448 
1668.425840  	98.341888 
1670.354656  	98.315728 
1672.283472  	98.474431 
1674.212288  	98.466762 
1676.141104  	98.525031 
1678.069920  	98.601209 
1679.998736  	98.487335 
1681.927552  	98.301962 
1683.856368  	98.048302 
1685.785184  	98.379885 
1687.714000  	98.534959 
1689.642816  	98.610005 
1691.571632  	98.718437 
1693.500448  	98.638098 
1695.429264  	98.349017 
1697.358080  	98.239074 
1699.286896  	98.213967 
1701.215712  	98.365824 
1703.144528  	98.516320 
1705.073344  	98.475474 
1707.002160  	98.591206 
1708.930976  	98.723778 
1710.859792  	98.741467 
1712.788608  	98.657580 
1714.717424  	98.441017 
1716.646240  	98.267390 
1718.575056  	98.433008 
1720.503872  	98.712844 
1722.432688  	98.800853 
1724.361504  	98.831390 
1726.290320  	98.852558 
1728.219136  	98.773245 
1730.147952  	98.626029 
1732.076768  	98.480984 
1734.005584  	98.407249 
1735.934400  	98.664024 
1737.863216  	98.741834 
1739.792032  	98.696415 
1741.720848  	98.716015 
1743.649664  	98.681743 
1745.578480  	98.673499 
1747.507296  	98.569451 
1749.436112  	98.513411 
1751.364928  	98.678410 
1753.293744  	98.908763 
1755.222560  	98.905095 
1757.151376  	98.817832 
1759.080192  	98.840185 
1761.009008  	98.791244 
1762.937824  	98.859031 
1764.866640  	98.952284 
1766.795456  	98.855681 
1768.724272  	98.750223 
1770.653088  	98.652821 
1772.581904  	98.617255 
1774.510720  	98.793627 
1776.439536  	98.893565 
1778.368352  	98.866621 
1780.297168  	98.830717 
1782.225984  	98.885299 
1784.154800  	98.882290 
1786.083616  	98.936011 
1788.012432  	98.969619 
1789.941248  	98.799703 
1791.870064  	98.643500 
1793.798880  	98.766756 
1795.727696  	98.858653 
1797.656512  	98.867976 
1799.585328  	98.811397 
1801.514144  	98.818353 
1803.442960  	98.935371 
1805.371776  	98.978058 
1807.300592  	98.937585 
1809.229408  	98.867870 
1811.158224  	98.868162 
1813.087040  	98.952013 
1815.015856  	98.996442 
1816.944672  	98.994012 
1818.873488  	98.983470 
1820.802304  	98.935532 
1822.731120  	98.843284 
1824.659936  	98.763891 
1826.588752  	98.809216 
1828.517568  	98.771987 
1830.446384  	98.769647 
1832.375200  	98.911525 
1834.304016  	98.955024 
1836.232832  	98.932112 
1838.161648  	98.957503 
1840.090464  	98.952190 
1842.019280  	98.841940 
1843.948096  	98.720184 
1845.876912  	98.773047 
1847.805728  	98.860988 
1849.734544  	98.929918 
1851.663360  	98.980103 
1853.592176  	99.003674 
1855.520992  	99.035940 
1857.449808  	99.030839 
1859.378624  	99.007083 
1861.307440  	98.997539 
1863.236256  	98.991597 
1865.165072  	98.894124 
1867.093888  	98.736010 
1869.022704  	98.710960 
1870.951520  	98.873785 
1872.880336  	98.966781 
1874.809152  	98.986429 
1876.737968  	98.982493 
1878.666784  	99.006897 
1880.595600  	99.019356 
1882.524416  	98.975019 
1884.453232  	98.948455 
1886.382048  	98.932293 
1888.310864  	98.853832 
1890.239680  	98.844820 
1892.168496  	98.895332 
1894.097312  	98.906956 
1896.026128  	98.895654 
1897.954944  	98.904686 
1899.883760  	98.928687 
1901.812576  	98.962010 
1903.741392  	98.941532 
1905.670208  	98.916023 
1907.599024  	98.851919 
1909.527840  	98.793676 
1911.456656  	98.868846 
1913.385472  	98.942655 
1915.314288  	98.888921 
1917.243104  	98.842030 
1919.171920  	98.815491 
1921.100736  	98.787205 
1923.029552  	98.805817 
1924.958368  	98.878142 
1926.887184  	98.934263 
1928.816000  	99.022805 
1930.744816  	99.057444 
1932.673632  	99.054411 
1934.602448  	99.040271 
1936.531264  	99.020030 
1938.460080  	99.006859 
1940.388896  	98.972105 
1942.317712  	98.911380 
1944.246528  	98.966836 
1946.175344  	98.985364 
1948.104160  	98.936314 
1950.032976  	98.929481 
1951.961792  	98.927311 
1953.890608  	98.921500 
1955.819424  	98.947953 
1957.748240  	99.000659 
1959.677056  	98.945573 
1961.605872  	98.896274 
1963.534688  	98.900617 
1965.463504  	98.950186 
1967.392320  	99.004322 
1969.321136  	99.015151 
1971.249952  	99.005522 
1973.178768  	98.971662 
1975.107584  	98.963294 
1977.036400  	99.026275 
1978.965216  	99.042936 
1980.894032  	98.976004 
1982.822848  	98.950443 
1984.751664  	98.952962 
1986.680480  	98.876272 
1988.609296  	98.900325 
1990.538112  	98.872654 
1992.466928  	98.853173 
1994.395744  	98.949148 
1996.324560  	98.963051 
1998.253376  	98.940289 
2000.182192  	98.941851 
2002.111008  	98.988191 
2004.039824  	99.043678 
2005.968640  	98.967112 
2007.897456  	98.858807 
2009.826272  	98.959539 
2011.755088  	99.037815 
2013.683904  	98.986553 
2015.612720  	99.001511 
2017.541536  	99.065461 
2019.470352  	99.077694 
2021.399168  	98.974543 
2023.327984  	99.047640 
2025.256800  	99.132477 
2027.185616  	99.070957 
2029.114432  	99.064010 
2031.043248  	99.091208 
2032.972064  	99.051087 
2034.900880  	98.978136 
2036.829696  	98.878698 
2038.758512  	98.863939 
2040.687328  	98.927255 
2042.616144  	98.993141 
2044.544960  	98.916289 
2046.473776  	98.857528 
2048.402592  	98.834400 
2050.331408  	98.855423 
2052.260224  	98.886847 
2054.189040  	98.918557 
2056.117856  	98.957570 
2058.046672  	98.929927 
2059.975488  	98.885112 
2061.904304  	98.837716 
2063.833120  	98.833126 
2065.761936  	98.913646 
2067.690752  	98.918029 
2069.619568  	98.893152 
2071.548384  	98.864624 
2073.477200  	98.859121 
2075.406016  	98.891016 
2077.334832  	98.877392 
2079.263648  	98.824083 
2081.192464  	98.799670 
2083.121280  	98.834159 
2085.050096  	98.879243 
2086.978912  	98.882922 
2088.907728  	98.883309 
2090.836544  	98.883771 
2092.765360  	98.935813 
2094.694176  	98.908586 
2096.622992  	98.848754 
2098.551808  	98.886725 
2100.480624  	98.888726 
2102.409440  	98.879269 
2104.338256  	98.939053 
2106.267072  	98.913132 
2108.195888  	98.824188 
2110.124704  	98.784464 
2112.053520  	98.826730 
2113.982336  	98.883433 
2115.911152  	98.831929 
2117.839968  	98.770584 
2119.768784  	98.746849 
2121.697600  	98.712844 
2123.626416  	98.741623 
2125.555232  	98.783953 
2127.484048  	98.853256 
2129.412864  	98.894451 
2131.341680  	98.841066 
2133.270496  	98.839402 
2135.199312  	98.802533 
2137.128128  	98.785475 
2139.056944  	98.795851 
2140.985760  	98.796806 
2142.914576  	98.741624 
2144.843392  	98.763459 
2146.772208  	98.858251 
2148.701024  	98.886550 
2150.629840  	98.880565 
2152.558656  	98.911380 
2154.487472  	98.916465 
2156.416288  	99.030832 
2158.345104  	99.074422 
2160.273920  	98.975250 
2162.202736  	98.884185 
2164.131552  	98.886623 
2166.060368  	98.859799 
2167.989184  	98.892982 
2169.918000  	98.899148 
2171.846816  	98.905827 
2173.775632  	98.928313 
2175.704448  	98.871463 
2177.633264  	98.795646 
2179.562080  	98.887725 
2181.490896  	98.906002 
2183.419712  	98.891012 
2185.348528  	98.900362 
2187.277344  	98.963762 
2189.206160  	98.914062 
2191.134976  	98.810899 
2193.063792  	98.792699 
2194.992608  	98.812604 
2196.921424  	98.864039 
2198.850240  	98.916542 
2200.779056  	98.913327 
2202.707872  	98.809792 
2204.636688  	98.671173 
2206.565504  	98.732837 
2208.494320  	98.803249 
2210.423136  	98.789217 
2212.351952  	98.824789 
2214.280768  	98.841780 
2216.209584  	98.787193 
2218.138400  	98.764859 
2220.067216  	98.823314 
2221.996032  	98.799290 
2223.924848  	98.741679 
2225.853664  	98.733182 
2227.782480  	98.754623 
2229.711296  	98.736988 
2231.640112  	98.743822 
2233.568928  	98.816659 
2235.497744  	98.811351 
2237.426560  	98.723936 
2239.355376  	98.708902 
2241.284192  	98.756536 
2243.213008  	98.766997 
2245.141824  	98.742006 
2247.070640  	98.762390 
2248.999456  	98.772126 
2250.928272  	98.688052 
2252.857088  	98.630307 
2254.785904  	98.681401 
2256.714720  	98.718806 
2258.643536  	98.701007 
2260.572352  	98.677765 
2262.501168  	98.631601 
2264.429984  	98.634832 
2266.358800  	98.653866 
2268.287616  	98.655545 
2270.216432  	98.648656 
2272.145248  	98.647474 
2274.074064  	98.646454 
2276.002880  	98.668426 
2277.931696  	98.685424 
2279.860512  	98.660267 
2281.789328  	98.634806 
2283.718144  	98.645839 
2285.646960  	98.663683 
2287.575776  	98.616535 
2289.504592  	98.541174 
2291.433408  	98.499735 
2293.362224  	98.497181 
2295.291040  	98.475734 
2297.219856  	98.429523 
2299.148672  	98.412062 
2301.077488  	98.357760 
2303.006304  	98.307670 
2304.935120  	98.282789 
2306.863936  	98.250230 
2308.792752  	98.228551 
2310.721568  	98.185301 
2312.650384  	98.140068 
2314.579200  	98.211685 
2316.508016  	98.193288 
2318.436832  	98.066266 
2320.365648  	98.010399 
2322.294464  	97.899246 
2324.223280  	97.907597 
2326.152096  	98.024981 
2328.080912  	98.022859 
2330.009728  	98.051846 
2331.938544  	98.036298 
2333.867360  	97.967072 
2335.796176  	97.879638 
2337.724992  	97.879316 
2339.653808  	97.959625 
2341.582624  	98.025487 
2343.511440  	98.124741 
2345.440256  	98.055063 
2347.369072  	97.986424 
2349.297888  	98.015377 
2351.226704  	97.958606 
2353.155520  	97.935245 
2355.084336  	98.035356 
2357.013152  	97.691758 
2358.941968  	97.442870 
2360.870784  	97.637633 
2362.799600  	97.721486 
2364.728416  	97.820754 
2366.657232  	97.797246 
2368.586048  	97.852682 
2370.514864  	97.942553 
2372.443680  	98.008507 
2374.372496  	98.134899 
2376.301312  	98.258812 
2378.230128  	98.277975 
2380.158944  	98.306021 
2382.087760  	98.406475 
2384.016576  	98.477880 
2385.945392  	98.498526 
2387.874208  	98.527378 
2389.803024  	98.553798 
2391.731840  	98.568083 
2393.660656  	98.566083 
2395.589472  	98.544520 
2397.518288  	98.519661 
2399.447104  	98.492134 
2401.375920  	98.507723 
2403.304736  	98.542262 
2405.233552  	98.516057 
2407.162368  	98.489216 
2409.091184  	98.489148 
2411.020000  	98.478596 
2412.948816  	98.458772 
2414.877632  	98.459360 
2416.806448  	98.494275 
2418.735264  	98.505683 
2420.664080  	98.501905 
2422.592896  	98.486248 
2424.521712  	98.479761 
2426.450528  	98.499889 
2428.379344  	98.506996 
2430.308160  	98.484841 
2432.236976  	98.477340 
2434.165792  	98.442289 
2436.094608  	98.415085 
2438.023424  	98.469959 
2439.952240  	98.501357 
2441.881056  	98.485265 
2443.809872  	98.468656 
2445.738688  	98.482156 
2447.667504  	98.512785 
2449.596320  	98.546445 
2451.525136  	98.504988 
2453.453952  	98.434981 
2455.382768  	98.494806 
2457.311584  	98.544644 
2459.240400  	98.466724 
2461.169216  	98.434093 
2463.098032  	98.443213 
2465.026848  	98.443044 
2466.955664  	98.464584 
2468.884480  	98.445953 
2470.813296  	98.424039 
2472.742112  	98.414200 
2474.670928  	98.406175 
2476.599744  	98.418112 
2478.528560  	98.396276 
2480.457376  	98.404358 
2482.386192  	98.395745 
2484.315008  	98.351475 
2486.243824  	98.392919 
2488.172640  	98.396930 
2490.101456  	98.360089 
2492.030272  	98.359788 
2493.959088  	98.383424 
2495.887904  	98.369358 
2497.816720  	98.341812 
2499.745536  	98.341583 
2501.674352  	98.370736 
2503.603168  	98.382047 
2505.531984  	98.361487 
2507.460800  	98.350003 
2509.389616  	98.366166 
2511.318432  	98.391327 
2513.247248  	98.422198 
2515.176064  	98.423060 
2517.104880  	98.394915 
2519.033696  	98.379969 
2520.962512  	98.373088 
2522.891328  	98.387490 
2524.820144  	98.405696 
2526.748960  	98.391112 
2528.677776  	98.350806 
2530.606592  	98.345671 
2532.535408  	98.356573 
2534.464224  	98.345719 
2536.393040  	98.332136 
2538.321856  	98.338199 
2540.250672  	98.374030 
2542.179488  	98.405140 
2544.108304  	98.354938 
2546.037120  	98.328218 
2547.965936  	98.325655 
2549.894752  	98.307496 
2551.823568  	98.289383 
2553.752384  	98.287749 
2555.681200  	98.313312 
2557.610016  	98.331607 
2559.538832  	98.341467 
2561.467648  	98.317598 
2563.396464  	98.295998 
2565.325280  	98.297479 
2567.254096  	98.288667 
2569.182912  	98.321828 
2571.111728  	98.319201 
2573.040544  	98.286763 
2574.969360  	98.311814 
2576.898176  	98.319717 
2578.826992  	98.304933 
2580.755808  	98.266946 
2582.684624  	98.253676 
2584.613440  	98.289034 
2586.542256  	98.295478 
2588.471072  	98.267167 
2590.399888  	98.278062 
2592.328704  	98.269103 
2594.257520  	98.248957 
2596.186336  	98.255181 
2598.115152  	98.273096 
2600.043968  	98.299350 
2601.972784  	98.258512 
2603.901600  	98.233089 
2605.830416  	98.240851 
2607.759232  	98.242919 
2609.688048  	98.246904 
2611.616864  	98.248167 
2613.545680  	98.247364 
2615.474496  	98.229624 
2617.403312  	98.184528 
2619.332128  	98.170192 
2621.260944  	98.193398 
2623.189760  	98.186458 
2625.118576  	98.168219 
2627.047392  	98.143390 
2628.976208  	98.117167 
2630.905024  	98.125990 
2632.833840  	98.146979 
2634.762656  	98.161509 
2636.691472  	98.132131 
2638.620288  	98.125226 
2640.549104  	98.143190 
2642.477920  	98.146890 
2644.406736  	98.151257 
2646.335552  	98.131774 
2648.264368  	98.123740 
2650.193184  	98.136040 
2652.122000  	98.128081 
2654.050816  	98.122994 
2655.979632  	98.109632 
2657.908448  	98.083031 
2659.837264  	98.078808 
2661.766080  	98.088373 
2663.694896  	98.100054 
2665.623712  	98.101968 
2667.552528  	98.107805 
2669.481344  	98.112926 
2671.410160  	98.091916 
2673.338976  	98.070022 
2675.267792  	98.069940 
2677.196608  	98.071545 
2679.125424  	98.063096 
2681.054240  	98.056528 
2682.983056  	98.047245 
2684.911872  	98.052216 
2686.840688  	98.068200 
2688.769504  	98.085047 
2690.698320  	98.063073 
2692.627136  	98.064254 
2694.555952  	98.072228 
2696.484768  	98.048125 
2698.413584  	98.027752 
2700.342400  	98.026063 
2702.271216  	98.023836 
2704.200032  	98.020496 
2706.128848  	98.002874 
2708.057664  	98.004960 
2709.986480  	98.028210 
2711.915296  	98.033589 
2713.844112  	98.018379 
2715.772928  	97.994180 
2717.701744  	97.985491 
2719.630560  	97.998056 
2721.559376  	98.007197 
2723.488192  	98.004648 
2725.417008  	97.974553 
2727.345824  	97.962742 
2729.274640  	97.979317 
2731.203456  	97.979244 
2733.132272  	97.969712 
2735.061088  	97.966260 
2736.989904  	97.935206 
2738.918720  	97.908458 
2740.847536  	97.917744 
2742.776352  	97.942104 
2744.705168  	97.946629 
2746.633984  	97.924268 
2748.562800  	97.898005 
2750.491616  	97.886219 
2752.420432  	97.906267 
2754.349248  	97.905479 
2756.278064  	97.886225 
2758.206880  	97.886671 
2760.135696  	97.875011 
2762.064512  	97.863079 
2763.993328  	97.860960 
2765.922144  	97.858519 
2767.850960  	97.866499 
2769.779776  	97.859310 
2771.708592  	97.855366 
2773.637408  	97.857767 
2775.566224  	97.868135 
2777.495040  	97.899039 
2779.423856  	97.881771 
2781.352672  	97.852230 
2783.281488  	97.847558 
2785.210304  	97.818524 
2787.139120  	97.806485 
2789.067936  	97.813487 
2790.996752  	97.833214 
2792.925568  	97.826306 
2794.854384  	97.825217 
2796.783200  	97.809008 
2798.712016  	97.777365 
2800.640832  	97.770108 
2802.569648  	97.775852 
2804.498464  	97.779131 
2806.427280  	97.783169 
2808.356096  	97.769808 
2810.284912  	97.744197 
2812.213728  	97.718583 
2814.142544  	97.733102 
2816.071360  	97.726071 
2818.000176  	97.709979 
2819.928992  	97.717569 
2821.857808  	97.711535 
2823.786624  	97.688885 
2825.715440  	97.683055 
2827.644256  	97.679694 
2829.573072  	97.670880 
2831.501888  	97.646070 
2833.430704  	97.640626 
2835.359520  	97.634138 
2837.288336  	97.633239 
2839.217152  	97.634707 
2841.145968  	97.639688 
2843.074784  	97.608417 
2845.003600  	97.563329 
2846.932416  	97.548845 
2848.861232  	97.522556 
2850.790048  	97.513962 
2852.718864  	97.551582 
2854.647680  	97.564413 
2856.576496  	97.552352 
2858.505312  	97.512900 
2860.434128  	97.480449 
2862.362944  	97.488212 
2864.291760  	97.452339 
2866.220576  	97.435750 
2868.149392  	97.454141 
2870.078208  	97.430898 
2872.007024  	97.419080 
2873.935840  	97.408072 
2875.864656  	97.388683 
2877.793472  	97.357352 
2879.722288  	97.348758 
2881.651104  	97.344550 
2883.579920  	97.345965 
2885.508736  	97.329645 
2887.437552  	97.338106 
2889.366368  	97.333402 
2891.295184  	97.310493 
2893.224000  	97.293605 
2895.152816  	97.303484 
2897.081632  	97.303997 
2899.010448  	97.285015 
2900.939264  	97.286243 
2902.868080  	97.286569 
2904.796896  	97.278103 
2906.725712  	97.251913 
2908.654528  	97.232367 
2910.583344  	97.224587 
2912.512160  	97.223883 
2914.440976  	97.216393 
2916.369792  	97.192029 
2918.298608  	97.153672 
2920.227424  	97.162978 
2922.156240  	97.170279 
2924.085056  	97.162838 
2926.013872  	97.160504 
2927.942688  	97.189812 
2929.871504  	97.212516 
2931.800320  	97.188877 
2933.729136  	97.184371 
2935.657952  	97.200558 
2937.586768  	97.221000 
2939.515584  	97.240690 
2941.444400  	97.257008 
2943.373216  	97.271094 
2945.302032  	97.304678 
2947.230848  	97.310550 
2949.159664  	97.299208 
2951.088480  	97.299818 
2953.017296  	97.336323 
2954.946112  	97.377565 
2956.874928  	97.377093 
2958.803744  	97.327819 
2960.732560  	97.326100 
2962.661376  	97.369851 
2964.590192  	97.425543 
2966.519008  	97.444579 
2968.447824  	97.392651 
2970.376640  	97.413744 
2972.305456  	97.443729 
2974.234272  	97.424236 
2976.163088  	97.421743 
2978.091904  	97.431076 
2980.020720  	97.429623 
2981.949536  	97.439706 
2983.878352  	97.462448 
2985.807168  	97.467835 
2987.735984  	97.478544 
2989.664800  	97.463511 
2991.593616  	97.453265 
2993.522432  	97.457945 
2995.451248  	97.468328 
2997.380064  	97.493674 
2999.308880  	97.493810 
3001.237696  	97.488548 
3003.166512  	97.476148 
3005.095328  	97.470417 
3007.024144  	97.486096 
3008.952960  	97.438919 
3010.881776  	97.408877 
3012.810592  	97.441035 
3014.739408  	97.457406 
3016.668224  	97.445089 
3018.597040  	97.440337 
3020.525856  	97.440311 
3022.454672  	97.443296 
3024.383488  	97.429132 
3026.312304  	97.414503 
3028.241120  	97.418983 
3030.169936  	97.385651 
3032.098752  	97.358045 
3034.027568  	97.356812 
3035.956384  	97.352632 
3037.885200  	97.373085 
3039.814016  	97.361240 
3041.742832  	97.335275 
3043.671648  	97.314608 
3045.600464  	97.299287 
3047.529280  	97.302777 
3049.458096  	97.299286 
3051.386912  	97.262457 
3053.315728  	97.249394 
3055.244544  	97.264880 
3057.173360  	97.252871 
3059.102176  	97.217519 
3061.030992  	97.216928 
3062.959808  	97.222779 
3064.888624  	97.193619 
3066.817440  	97.146803 
3068.746256  	97.138498 
3070.675072  	97.177142 
3072.603888  	97.194510 
3074.532704  	97.183521 
3076.461520  	97.175355 
3078.390336  	97.146699 
3080.319152  	97.101238 
3082.247968  	97.075698 
3084.176784  	97.059798 
3086.105600  	97.062018 
3088.034416  	97.068202 
3089.963232  	97.056109 
3091.892048  	97.033004 
3093.820864  	97.031897 
3095.749680  	97.035802 
3097.678496  	97.033608 
3099.607312  	96.999772 
3101.536128  	96.983335 
3103.464944  	96.993221 
3105.393760  	96.974863 
3107.322576  	96.960686 
3109.251392  	96.932083 
3111.180208  	96.927961 
3113.109024  	96.902449 
3115.037840  	96.848962 
3116.966656  	96.834004 
3118.895472  	96.875120 
3120.824288  	96.880142 
3122.753104  	96.855929 
3124.681920  	96.837387 
3126.610736  	96.793771 
3128.539552  	96.767775 
3130.468368  	96.748561 
3132.397184  	96.719078 
3134.326000  	96.708328 
3136.254816  	96.705642 
3138.183632  	96.720909 
3140.112448  	96.720249 
3142.041264  	96.710112 
3143.970080  	96.678901 
3145.898896  	96.679650 
3147.827712  	96.705226 
3149.756528  	96.664827 
3151.685344  	96.613775 
3153.614160  	96.632214 
3155.542976  	96.653958 
3157.471792  	96.626822 
3159.400608  	96.604453 
3161.329424  	96.599375 
3163.258240  	96.599095 
3165.187056  	96.610397 
3167.115872  	96.606270 
3169.044688  	96.601229 
3170.973504  	96.583529 
3172.902320  	96.541985 
3174.831136  	96.509315 
3176.759952  	96.489124 
3178.688768  	96.492069 
3180.617584  	96.499062 
3182.546400  	96.473995 
3184.475216  	96.449552 
3186.404032  	96.430790 
3188.332848  	96.388098 
3190.261664  	96.351613 
3192.190480  	96.345545 
3194.119296  	96.416637 
3196.048112  	96.434543 
3197.976928  	96.354886 
3199.905744  	96.282892 
3201.834560  	96.272848 
3203.763376  	96.266119 
3205.692192  	96.259383 
3207.621008  	96.255802 
3209.549824  	96.261257 
3211.478640  	96.233131 
3213.407456  	96.179239 
3215.336272  	96.179111 
3217.265088  	96.199077 
3219.193904  	96.175906 
3221.122720  	96.161184 
3223.051536  	96.172724 
3224.980352  	96.178606 
3226.909168  	96.151638 
3228.837984  	96.170649 
3230.766800  	96.166921 
3232.695616  	96.141588 
3234.624432  	96.163348 
3236.553248  	96.153725 
3238.482064  	96.143568 
3240.410880  	96.137703 
3242.339696  	96.137497 
3244.268512  	96.115691 
3246.197328  	96.121852 
3248.126144  	96.110771 
3250.054960  	96.087027 
3251.983776  	96.083172 
3253.912592  	96.077619 
3255.841408  	96.069490 
3257.770224  	96.070693 
3259.699040  	96.069357 
3261.627856  	96.079389 
3263.556672  	96.062274 
3265.485488  	96.077407 
3267.414304  	96.064383 
3269.343120  	95.977076 
3271.271936  	95.955319 
3273.200752  	95.964824 
3275.129568  	95.964177 
3277.058384  	95.947455 
3278.987200  	95.974765 
3280.916016  	96.009579 
3282.844832  	95.967675 
3284.773648  	95.949788 
3286.702464  	95.979133 
3288.631280  	95.967822 
3290.560096  	95.960163 
3292.488912  	95.950901 
3294.417728  	95.942779 
3296.346544  	95.919507 
3298.275360  	95.932621 
3300.204176  	95.963661 
3302.132992  	95.943787 
3304.061808  	95.952897 
3305.990624  	95.978110 
3307.919440  	95.936493 
3309.848256  	95.909435 
3311.777072  	95.957852 
3313.705888  	95.980236 
3315.634704  	95.966426 
3317.563520  	95.993219 
3319.492336  	95.993390 
3321.421152  	95.944299 
3323.349968  	95.952791 
3325.278784  	95.975919 
3327.207600  	95.952146 
3329.136416  	95.956871 
3331.065232  	95.942977 
3332.994048  	95.922453 
3334.922864  	95.962546 
3336.851680  	95.956026 
3338.780496  	95.913893 
3340.709312  	95.905453 
3342.638128  	95.907898 
3344.566944  	95.919090 
3346.495760  	95.948180 
3348.424576  	95.967291 
3350.353392  	95.950280 
3352.282208  	95.923332 
3354.211024  	95.917995 
3356.139840  	95.925711 
3358.068656  	95.940722 
3359.997472  	95.920326 
3361.926288  	95.919263 
3363.855104  	95.943395 
3365.783920  	96.017474 
3367.712736  	96.044742 
3369.641552  	95.979999 
3371.570368  	95.981365 
3373.499184  	96.020337 
3375.428000  	96.017475 
3377.356816  	96.012361 
3379.285632  	96.035234 
3381.214448  	96.051500 
3383.143264  	96.008483 
3385.072080  	95.986614 
3387.000896  	96.029735 
3388.929712  	96.057716 
3390.858528  	96.049947 
3392.787344  	96.039362 
3394.716160  	96.058142 
3396.644976  	96.076313 
3398.573792  	96.101143 
3400.502608  	96.135652 
3402.431424  	96.089542 
3404.360240  	96.095368 
3406.289056  	96.108613 
3408.217872  	96.081255 
3410.146688  	96.077064 
3412.075504  	96.090503 
3414.004320  	96.112462 
3415.933136  	96.086871 
3417.861952  	96.048363 
3419.790768  	96.079377 
3421.719584  	96.108583 
3423.648400  	96.134137 
3425.577216  	96.164070 
3427.506032  	96.174702 
3429.434848  	96.171747 
3431.363664  	96.149002 
3433.292480  	96.165351 
3435.221296  	96.181777 
3437.150112  	96.157413 
3439.078928  	96.133498 
3441.007744  	96.110612 
3442.936560  	96.161842 
3444.865376  	96.249151 
3446.794192  	96.273240 
3448.723008  	96.277843 
3450.651824  	96.350517 
3452.580640  	96.360703 
3454.509456  	96.310422 
3456.438272  	96.299677 
3458.367088  	96.305242 
3460.295904  	96.316166 
3462.224720  	96.314609 
3464.153536  	96.334751 
3466.082352  	96.363890 
3468.011168  	96.351236 
3469.939984  	96.331974 
3471.868800  	96.320920 
3473.797616  	96.371281 
3475.726432  	96.417986 
3477.655248  	96.362648 
3479.584064  	96.327461 
3481.512880  	96.349733 
3483.441696  	96.376396 
3485.370512  	96.437372 
3487.299328  	96.486981 
3489.228144  	96.495971 
3491.156960  	96.457128 
3493.085776  	96.450147 
3495.014592  	96.459934 
3496.943408  	96.437865 
3498.872224  	96.449531 
3500.801040  	96.381935 
3502.729856  	96.364681 
3504.658672  	96.425279 
3506.587488  	96.519810 
3508.516304  	96.476892 
3510.445120  	96.469872 
3512.373936  	96.570252 
3514.302752  	96.594990 
3516.231568  	96.601454 
3518.160384  	96.600143 
3520.089200  	96.568281 
3522.018016  	96.495991 
3523.946832  	96.457511 
3525.875648  	96.535166 
3527.804464  	96.611528 
3529.733280  	96.661747 
3531.662096  	96.703930 
3533.590912  	96.694718 
3535.519728  	96.679743 
3537.448544  	96.698978 
3539.377360  	96.705102 
3541.306176  	96.671342 
3543.234992  	96.645013 
3545.163808  	96.591104 
3547.092624  	96.597954 
3549.021440  	96.685795 
3550.950256  	96.683920 
3552.879072  	96.660853 
3554.807888  	96.740634 
3556.736704  	96.753944 
3558.665520  	96.728643 
3560.594336  	96.666978 
3562.523152  	96.588822 
3564.451968  	96.483916 
3566.380784  	96.379773 
3568.309600  	96.490477 
3570.238416  	96.705816 
3572.167232  	96.787515 
3574.096048  	96.785993 
3576.024864  	96.802700 
3577.953680  	96.793907 
3579.882496  	96.773288 
3581.811312  	96.769612 
3583.740128  	96.738374 
3585.668944  	96.668676 
3587.597760  	96.583732 
3589.526576  	96.678560 
3591.455392  	96.716467 
3593.384208  	96.655122 
3595.313024  	96.654377 
3597.241840  	96.740439 
3599.170656  	96.778435 
3601.099472  	96.785290 
3603.028288  	96.835377 
3604.957104  	96.835014 
3606.885920  	96.702180 
3608.814736  	96.602367 
3610.743552  	96.625813 
3612.672368  	96.603789 
3614.601184  	96.640305 
3616.530000  	96.685465 
3618.458816  	96.644587 
3620.387632  	96.678821 
3622.316448  	96.815752 
3624.245264  	96.825164 
3626.174080  	96.661261 
3628.102896  	96.476002 
3630.031712  	96.522321 
3631.960528  	96.759003 
3633.889344  	96.848049 
3635.818160  	96.935502 
3637.746976  	96.979869 
3639.675792  	96.947235 
3641.604608  	96.902424 
3643.533424  	96.774325 
3645.462240  	96.585390 
3647.391056  	96.316241 
3649.319872  	96.282147 
3651.248688  	96.520140 
3653.177504  	96.811197 
3655.106320  	96.857351 
3657.035136  	96.896545 
3658.963952  	97.006911 
3660.892768  	97.009353 
3662.821584  	97.009127 
3664.750400  	96.999582 
3666.679216  	96.940564 
3668.608032  	96.773955 
3670.536848  	96.614978 
3672.465664  	96.636953 
3674.394480  	96.544694 
3676.323296  	96.463775 
3678.252112  	96.699392 
3680.180928  	96.862225 
3682.109744  	96.945647 
3684.038560  	96.893675 
3685.967376  	96.788080 
3687.896192  	96.594328 
3689.825008  	96.476767 
3691.753824  	96.612538 
3693.682640  	96.843101 
3695.611456  	96.917549 
3697.540272  	96.874228 
3699.469088  	96.850866 
3701.397904  	96.770716 
3703.326720  	96.792510 
3705.255536  	96.841138 
3707.184352  	96.732594 
3709.113168  	96.574253 
3711.041984  	96.529042 
3712.970800  	96.596603 
3714.899616  	96.745829 
3716.828432  	96.835400 
3718.757248  	96.734170 
3720.686064  	96.641108 
3722.614880  	96.603287 
3724.543696  	96.586471 
3726.472512  	96.547938 
3728.401328  	96.621109 
3730.330144  	96.627663 
3732.258960  	96.386136 
3734.187776  	96.161497 
3736.116592  	96.211998 
3738.045408  	96.460320 
3739.974224  	96.599594 
3741.903040  	96.571780 
3743.831856  	96.448831 
3745.760672  	96.315127 
3747.689488  	96.392579 
3749.618304  	96.320849 
3751.547120  	96.329562 
3753.475936  	96.452653 
3755.404752  	96.609947 
3757.333568  	96.650891 
3759.262384  	96.689045 
3761.191200  	96.737594 
3763.120016  	96.789817 
3765.048832  	96.740305 
3766.977648  	96.696229 
3768.906464  	96.706501 
3770.835280  	96.749476 
3772.764096  	96.837480 
3774.692912  	96.821408 
3776.621728  	96.800164 
3778.550544  	96.679152 
3780.479360  	96.607589 
3782.408176  	96.706908 
3784.336992  	96.740317 
3786.265808  	96.756023 
3788.194624  	96.814885 
3790.123440  	96.857127 
3792.052256  	96.817398 
3793.981072  	96.745807 
3795.909888  	96.577136 
3797.838704  	96.474750 
3799.767520  	96.484785 
3801.696336  	96.422823 
3803.625152  	96.535646 
3805.553968  	96.644285 
3807.482784  	96.603746 
3809.411600  	96.700798 
3811.340416  	96.779498 
3813.269232  	96.755169 
3815.198048  	96.550066 
3817.126864  	96.357168 
3819.055680  	96.414547 
3820.984496  	96.314333 
3822.913312  	96.386616 
3824.842128  	96.574260 
3826.770944  	96.608368 
3828.699760  	96.630234 
3830.628576  	96.585695 
3832.557392  	96.462795 
3834.486208  	96.406060 
3836.415024  	96.318517 
3838.343840  	96.229487 
3840.272656  	96.299324 
3842.201472  	96.447589 
3844.130288  	96.550158 
3846.059104  	96.612785 
3847.987920  	96.578896 
3849.916736  	96.414900 
3851.845552  	96.242527 
3853.774368  	96.105142 
3855.703184  	96.292351 
3857.632000  	96.490149 
3859.560816  	96.566588 
3861.489632  	96.451420 
3863.418448  	96.323880 
3865.347264  	96.304092 
3867.276080  	96.368224 
3869.204896  	96.264329 
3871.133712  	96.230365 
3873.062528  	96.410467 
3874.991344  	96.457147 
3876.920160  	96.535371 
3878.848976  	96.488623 
3880.777792  	96.325503 
3882.706608  	96.409893 
3884.635424  	96.418302 
3886.564240  	96.394376 
3888.493056  	96.566570 
3890.421872  	96.525882 
3892.350688  	96.425044 
3894.279504  	96.495783 
3896.208320  	96.548255 
3898.137136  	96.494082 
3900.065952  	96.311562 
3901.994768  	96.251685 
3903.923584  	96.317041 
3905.852400  	96.469994 
3907.781216  	96.606418 
3909.710032  	96.672249 
3911.638848  	96.657587 
3913.567664  	96.581182 
3915.496480  	96.489156 
3917.425296  	96.412940 
3919.354112  	96.440992 
3921.282928  	96.467584 
3923.211744  	96.447287 
3925.140560  	96.408424 
3927.069376  	96.433225 
3928.998192  	96.453556 
3930.927008  	96.436929 
3932.855824  	96.441327 
3934.784640  	96.507295 
3936.713456  	96.497657 
3938.642272  	96.464762 
3940.571088  	96.472823 
3942.499904  	96.434876 
3944.428720  	96.417169 
3946.357536  	96.412725 
3948.286352  	96.412615 
3950.215168  	96.469858 
3952.143984  	96.533993 
3954.072800  	96.581670 
3956.001616  	96.562990 
3957.930432  	96.508941 
3959.859248  	96.522840 
3961.788064  	96.534738 
3963.716880  	96.517526 
3965.645696  	96.541256 
3967.574512  	96.585915 
3969.503328  	96.631079 
3971.432144  	96.604994 
3973.360960  	96.532072 
3975.289776  	96.530855 
3977.218592  	96.542736 
3979.147408  	96.532046 
3981.076224  	96.484491 
3983.005040  	96.467344 
3984.933856  	96.506676 
3986.862672  	96.518916 
3988.791488  	96.490826 
3990.720304  	96.490222 
3992.649120  	96.473467 
3994.577936  	96.451920 
3996.506752  	96.456118 
3998.435568  	96.500502 
4000.364384  	96.496713 